File: charging_cycle_77.csv
control/mA,Ewe/V
-0.01,-0.5841196
-0.01,-0.587497
-0.01,-0.592363
-0.01,-0.5953212
-0.01,-0.59847
-0.01,-0.602668
-0.01,-0.60658
-0.01,-0.6097477
-0.01,-0.6132971
-0.01,-0.6169037
0.01,-0.332263
0.01,0.2105612
0.01,0.260653
0.01,0.289335
0.01,0.310497
0.01,0.327328
0.01,0.342213
0.01,0.355456
0.01,0.3671731
0.01,0.378833
0.01,0.388737
0.01,0.3978963
0.01,0.406903
0.01,0.4153
0.01,0.423772
0.01,0.431558
0.01,0.4390577
0.01,0.4459275
0.01,0.452702
0.01,0.4593999
0.01,0.466117
0.01,0.472796
0.01,0.478883
0.01,0.484799
0.01,0.490638
0.01,0.4964967
0.01,0.5023551
0.01,0.50808
0.01,0.513041
0.01,0.5186518
0.01,0.52409
0.01,0.52972
0.01,0.5350056
0.01,0.5405015
0.01,0.545692
0.01,0.5506153
0.01,0.5555768
0.01,0.560462
0.01,0.5658815
0.01,0.5708812
0.01,0.5758427
0.01,0.5807279
0.01,0.5854222
0.01,0.590689
0.01,0.5954025
0.01,0.6003449
0.01,0.605478
0.01,0.6101343
0.01,0.6149623
0.01,0.6200001
0.01,0.62458
0.01,0.629561
0.01,0.6341213
0.01,0.6388347
0.01,0.643739
0.01,0.6482616
0.01,0.6530514
0.01,0.657803
0.01,0.6629935
0.01,0.6677641
0.01,0.671829