File: charging_cycle_78.csv
control/mA,Ewe/V
-0.01,-0.58828
-0.01,-0.592478
-0.01,-0.5964661
-0.01,-0.598947
-0.01,-0.603355
-0.01,-0.607572
-0.01,-0.6109118
-0.01,-0.6142703
-0.01,-0.618163
-0.01,-0.619747
0.01,-0.3341066
0.01,0.210466
0.01,0.260367
0.01,0.289888
0.01,0.311318
0.01,0.328111
0.01,0.3432052
0.01,0.3561433
0.01,0.368471
0.01,0.379501
0.01,0.389767
0.01,0.398831
0.01,0.408354
0.01,0.417265
0.01,0.425509
0.01,0.4333329
0.01,0.440966
0.01,0.448046
0.01,0.4549918
0.01,0.462091
0.01,0.468731
0.01,0.4754294
0.01,0.481994
0.01,0.488482
0.01,0.4943213
0.01,0.5001415
0.01,0.5058854
0.01,0.511629
0.01,0.517354
0.01,0.523098
0.01,0.52806
0.01,0.533651
0.01,0.5390512
0.01,0.544413
0.01,0.5494131
0.01,0.554489
0.01,0.559527
0.01,0.564927
0.01,0.570213
0.01,0.5759572
0.01,0.581052
0.01,0.5859756
0.01,0.5912806
0.01,0.5963948
0.01,0.601375
0.01,0.606585
0.01,0.6113365
0.01,0.6165461
0.01,0.6214313
0.01,0.6263165
0.01,0.6316787
0.01,0.6369837
0.01,0.641831
0.01,0.6466205
0.01,0.651391
0.01,0.6561809
0.01,0.661257
0.01,0.665894
0.01,0.6700541
0.01,0.67534
0.01,0.6799389