File: charging_cycle_34.csv
control/mA,Ewe/V
-0.01,-1.2831
-0.01,-1.276288
-0.01,-1.26886
-0.01,-1.26146
-0.01,-1.25461
-0.01,-1.24782
-0.01,-1.24102
-0.01,-1.22793
-0.01,-1.21999
-0.01,-1.21263
0.01,-0.514695
0.01,0.48541
0.01,0.5443371
0.01,0.5763961
0.01,0.6008029
0.01,0.620935
0.01,0.6381478
0.01,0.6524789
0.01,0.6648636
0.01,0.675951
0.01,0.6862553
0.01,0.695243
0.01,0.703544
0.01,0.7109865
0.01,0.717646
0.01,0.7235048
0.01,0.728409
0.01,0.7327599
0.01,0.73671
0.01,0.739935
0.01,0.7430455
0.01,0.74587
0.01,0.7481024
0.01,0.750259
0.01,0.7521861
0.01,0.753694
0.01,0.7550485
0.01,0.7562698
0.01,0.7577201
0.01,0.7581399
0.01,0.7586742
0.01,0.7591513
0.01,0.759552
0.01,0.7595902
0.01,0.7595329
0.01,0.759285
0.01,0.7589414
0.01,0.758522
0.01,0.7579109
0.01,0.7572812
0.01,0.756537
0.01,0.755793
0.01,0.7549531
0.01,0.754133
0.01,0.753121
0.01,0.7520907
0.01,0.7509267
0.01,0.7498771
0.01,0.748618
0.01,0.7473773
0.01,0.7462132
0.01,0.7449919
0.01,0.7434844
0.01,0.7423585
0.01,0.740756
0.01,0.7392671
0.01,0.737798
0.01,0.736672
0.01,0.7352979
0.01,0.7334469
0.01,0.73213
0.01,0.731443