File: charging_cycle_261.csv
control/mA,Ewe/V
-0.08,-5.46092
-0.08,-5.478109
-0.08,-5.494272
-0.08,-5.509538
-0.08,-5.523736
-0.08,-5.538506
-0.08,-5.55112
-0.08,-5.563695
-0.08,-5.57555
-0.08,-5.58205
0.08,-4.88897
0.08,-3.88671
0.08,-2.88639
0.08,-1.88638
0.08,-0.8863388
0.08,0.00184738
0.08,0.477013
0.08,0.7414998
0.08,0.9030732
0.08,1.01003
0.08,1.083882
0.08,1.14596
0.08,1.21229
0.08,1.2865
0.08,1.37747
0.08,1.49937
0.08,1.65478
0.08,1.83601
0.08,2.00008
0.08,2.10956
0.08,2.19995
0.08,2.29519
0.08,2.40958
0.08,2.55308
0.08,2.72744
0.08,2.90021
0.08,3.07266
0.08,3.24494
0.08,3.41426
0.08,3.57391
0.08,3.71438
0.08,3.84105
0.08,3.95949
0.08,4.077596
0.08,4.197616
0.08,4.31826
0.08,4.4351
0.08,4.54446
0.08,4.64232
0.08,4.72752
0.08,4.80286
0.08,4.868126
0.08,4.926576
0.08,4.979206
0.08,5.027352
0.08,5.074696
0.08,5.11746
0.08,5.156351
0.08,5.188544
0.08,5.21621
0.08,5.23627
0.08,5.253024
0.08,5.26585
0.08,5.276477
0.08,5.2851
0.08,5.29142
0.08,5.29663
0.08,5.302162
0.08,5.306322
0.08,5.310559
0.08,5.314089
0.08,5.317562
0.08,5.320577
0.08,5.313593
0.08,5.31854