File: charging_cycle_222.csv
control/mA,Ewe/V
-0.08,-6.637218
-0.08,-6.69613
-0.08,-6.74702
-0.08,-6.793868
-0.08,-6.840411
-0.08,-6.885809
-0.08,-6.93262
-0.08,-6.97847
-0.08,-7.02238
-0.08,-7.05374
0.08,-5.896431
0.08,-4.783313
0.08,-3.75664
0.08,-2.75539
0.08,-1.75533
0.08,-0.7553168
0.08,0.244757
0.08,0.6746912
0.08,0.9330712
0.08,1.04915
0.08,1.12325
0.08,1.19178
0.08,1.26799
0.08,1.36285
0.08,1.47231
0.08,1.61784
0.08,1.7992
0.08,1.99344
0.08,2.1707
0.08,2.31899
0.08,2.44986
0.08,2.58191
0.08,2.72965
0.08,2.89617
0.08,3.07446
0.08,3.26427
0.08,3.46598
0.08,3.661
0.08,3.8441
0.08,4.01329
0.08,4.17087
0.08,4.325394
0.08,4.4796
0.08,4.62694
0.08,4.765518
0.08,4.88601
0.08,4.985217
0.08,5.0697
0.08,5.145512
0.08,5.214878
0.08,5.277164
0.08,5.33563
0.08,5.39042
0.08,5.438298
0.08,5.481635
0.08,5.51911
0.08,5.55201
0.08,5.578022
0.08,5.60119
0.08,5.62224
0.08,5.640709
0.08,5.65767
0.08,5.67231
0.08,5.68626
0.08,5.69897
0.08,5.71042
0.08,5.72042
0.08,5.730169
0.08,5.739195
0.08,5.74788
0.08,5.756102
0.08,5.76402
0.08,5.769956
0.08,5.777532
0.08,5.78257
0.08,5.787016