File: charging_cycle_150.csv
control/mA,Ewe/V
-0.04,-2.64613
-0.04,-2.67053
-0.04,-2.69422
-0.04,-2.71723
-0.04,-2.73948
-0.04,-2.76082
-0.04,-2.782
-0.04,-2.80242
-0.04,-2.82337
-0.04,-2.83022
0.04,-2.1957
0.04,-1.19559
0.04,-0.195563
0.04,0.3668487
0.04,0.5888
0.04,0.7130665
0.04,0.8056368
0.04,0.8891428
0.04,0.969538
0.04,1.041
0.04,1.10609
0.04,1.17168
0.04,1.24257
0.04,1.32354
0.04,1.41449
0.04,1.51576
0.04,1.6245
0.04,1.73851
0.04,1.84855
0.04,1.94457
0.04,2.02096
0.04,2.0792
0.04,2.12185
0.04,2.15465
0.04,2.18555
0.04,2.21447
0.04,2.24212
0.04,2.26981
0.04,2.30134
0.04,2.33445
0.04,2.37179
0.04,2.41347
0.04,2.46005
0.04,2.512145
0.04,2.57019
0.04,2.63559
0.04,2.70832
0.04,2.789188
0.04,2.872236
0.04,2.95372
0.04,3.03677
0.04,3.1198
0.04,3.20221
0.04,3.28893
0.04,3.3755
0.04,3.4675
0.04,3.55173
0.04,3.64325
0.04,3.73092
0.04,3.81242
0.04,3.88992
0.04,3.9573
0.04,4.0163
0.04,4.0684
0.04,4.114922
0.04,4.15179
0.04,4.196681
0.04,4.232175
0.04,4.269253
0.04,4.30564
0.04,4.339477
0.04,4.369437
0.04,4.378597