File: charging_cycle_65.csv
control/mA,Ewe/V
-0.01,-0.55103
-0.01,-0.554408
-0.01,-0.557137
-0.01,-0.5604952
-0.01,-0.5640446
-0.01,-0.5673459
-0.01,-0.5706281
-0.01,-0.573681
-0.01,-0.5765438
-0.01,-0.5795016
0.01,-0.308377
0.01,0.2078133
0.01,0.256264
0.01,0.285709
0.01,0.307463
0.01,0.325153
0.01,0.3401329
0.01,0.3530519
0.01,0.365131
0.01,0.376047
0.01,0.38658
0.01,0.396217
0.01,0.405243
0.01,0.413754
0.01,0.421902
0.01,0.4294782
0.01,0.436462
0.01,0.443313
0.01,0.450603
0.01,0.457205
0.01,0.463312
0.01,0.469609
0.01,0.4754103
0.01,0.4812687
0.01,0.486936
0.01,0.492718
0.01,0.4980424
0.01,0.503481
0.01,0.5085
0.01,0.513843
0.01,0.519129
0.01,0.5238995
0.01,0.528823
0.01,0.5335363
0.01,0.5388031
0.01,0.5432876
0.01,0.54823
0.01,0.5529434
0.01,0.5576187
0.01,0.5620268
0.01,0.5663967
0.01,0.571358
0.01,0.575805
0.01,0.5801554
0.01,0.584583
0.01,0.588838
0.01,0.5930553
0.01,0.597578
0.01,0.601833
0.01,0.6061079
0.01,0.6103061
0.01,0.614447
0.01,0.618416
0.01,0.6218702
0.01,0.6256677
0.01,0.6295224
0.01,0.633358
0.01,0.6371555
0.01,0.641239
0.01,0.6443115
0.01,0.6481471