File: charging_cycle_104.csv
control/mA,Ewe/V
-0.02,-1.35838
-0.02,-1.38601
-0.02,-1.41481
-0.02,-1.44233
-0.02,-1.46996
-0.02,-1.49904
-0.02,-1.52824
-0.02,-1.55616
-0.02,-1.58512
-0.02,-1.61358
0.02,-0.936708
0.02,0.06329984
0.02,0.461919
0.02,0.513919
0.02,0.5471804
0.02,0.573381
0.02,0.596223
0.02,0.6179773
0.02,0.6407049
0.02,0.6639667
0.02,0.6874766
0.02,0.7101087
0.02,0.732035
0.02,0.752282
0.02,0.7708872
0.02,0.789016
0.02,0.8059612
0.02,0.821609
0.02,0.8382492
0.02,0.8541451
0.02,0.871014
0.02,0.888837
0.02,0.9067371
0.02,0.925877
0.02,0.9457612
0.02,0.964939
0.02,0.9875715
0.02,1.00898
0.02,1.0319
0.02,1.05667
0.02,1.08169
0.02,1.107621
0.02,1.13584
0.02,1.1646
0.02,1.19523
0.02,1.2246
0.02,1.25788
0.02,1.29101
0.02,1.3266
0.02,1.36142
0.02,1.39722
0.02,1.43594
0.02,1.473
0.02,1.51002
0.02,1.54933
0.02,1.5895
0.02,1.62825
0.02,1.67024
0.02,1.71176
0.02,1.74926
0.02,1.79559
0.02,1.83933
0.02,1.88087
0.02,1.92331
0.02,1.96613
0.02,2.00817
0.02,2.048342
0.02,2.09353
0.02,2.13622
0.02,2.17841
0.02,2.21789
0.02,2.25886