File: charging_cycle_227.csv
control/mA,Ewe/V
-0.08,-6.58745
-0.08,-6.64611
-0.08,-6.708034
-0.08,-6.76154
-0.08,-6.812493
-0.08,-6.86339
-0.08,-6.91691
-0.08,-6.966872
-0.08,-7.01929
-0.08,-7.048775
0.08,-5.957349
0.08,-4.887008
0.08,-3.86975
0.08,-2.868738
0.08,-1.868708
0.08,-0.8686873
0.08,0.128213
0.08,0.5450432
0.08,0.8099686
0.08,0.941773
0.08,1.02549
0.08,1.113403
0.08,1.203607
0.08,1.3002
0.08,1.41136
0.08,1.54416
0.08,1.7121
0.08,1.91408
0.08,2.09895
0.08,2.2469
0.08,2.37049
0.08,2.49676
0.08,2.64321
0.08,2.81485
0.08,2.99738
0.08,3.187597
0.08,3.37936
0.08,3.57822
0.08,3.76008
0.08,3.9268
0.08,4.0822
0.08,4.239159
0.08,4.40037
0.08,4.55473
0.08,4.69779
0.08,4.814675
0.08,4.911825
0.08,4.99144
0.08,5.06491
0.08,5.12906
0.08,5.188162
0.08,5.244876
0.08,5.29804
0.08,5.34651
0.08,5.39361
0.08,5.43607
0.08,5.47446
0.08,5.507569
0.08,5.53543
0.08,5.559054
0.08,5.579224
0.08,5.598574
0.08,5.61596
0.08,5.63174
0.08,5.64481
0.08,5.65765
0.08,5.67023
0.08,5.680649
0.08,5.69103
0.08,5.699331
0.08,5.70563
0.08,5.715112
0.08,5.7213
0.08,5.728184
0.08,5.734176
0.08,5.73773