File: charging_cycle_81.csv
control/mA,Ewe/V
-0.01,-0.5964089
-0.01,-0.6009124
-0.01,-0.6041374
-0.01,-0.608278
-0.01,-0.6121903
-0.01,-0.6160641
-0.01,-0.619518
-0.01,-0.6235636
-0.01,-0.626273
-0.01,-0.629689
0.01,-0.340198
0.01,0.210409
0.01,0.259699
0.01,0.28922
0.01,0.310402
0.01,0.328015
0.01,0.343072
0.01,0.356659
0.01,0.368585
0.01,0.37973
0.01,0.3900342
0.01,0.399652
0.01,0.4086971
0.01,0.41738
0.01,0.425452
0.01,0.433142
0.01,0.440775
0.01,0.44858
0.01,0.455698
0.01,0.46251
0.01,0.469056
0.01,0.4755057
0.01,0.481803
0.01,0.48852
0.01,0.494913
0.01,0.5004659
0.01,0.5065724
0.01,0.512278
0.01,0.5179457
0.01,0.5234797
0.01,0.5285557
0.01,0.5344332
0.01,0.539872
0.01,0.5451958
0.01,0.5504436
0.01,0.5559012
0.01,0.5610154
0.01,0.5663204
0.01,0.5716254
0.01,0.576911
0.01,0.582312
0.01,0.587674
0.01,0.592559
0.01,0.597139
0.01,0.6026157
0.01,0.607119
0.01,0.6122716
0.01,0.6168896
0.01,0.6226526
0.01,0.6277286
0.01,0.6324229
0.01,0.637404
0.01,0.6425177
0.01,0.6473265
0.01,0.6522117
0.01,0.6575358
0.01,0.6627072
0.01,0.667955
0.01,0.6721913
0.01,0.677344
0.01,0.682553