File: charging_cycle_143.csv
control/mA,Ewe/V
-0.04,-2.48455
-0.04,-2.50337
-0.04,-2.52213
-0.04,-2.54051
-0.04,-2.55903
-0.04,-2.57827
-0.04,-2.59663
-0.04,-2.613535
-0.04,-2.6326
-0.04,-2.64788
0.04,-1.97231
0.04,-0.972287
0.04,0.0277426
0.04,0.3848437
0.04,0.5605956
0.04,0.669768
0.04,0.7504496
0.04,0.8244142
0.04,0.896566
0.04,0.9640425
0.04,1.01971
0.04,1.07035
0.04,1.12405
0.04,1.18475
0.04,1.25271
0.04,1.32614
0.04,1.40701
0.04,1.49168
0.04,1.58711
0.04,1.69239
0.04,1.79529
0.04,1.89562
0.04,1.97949
0.04,2.04563
0.04,2.098167
0.04,2.13961
0.04,2.1765
0.04,2.21117
0.04,2.24691
0.04,2.282179
0.04,2.31313
0.04,2.35719
0.04,2.40124
0.04,2.44686
0.04,2.49715
0.04,2.55233
0.04,2.60909
0.04,2.669711
0.04,2.73095
0.04,2.803252
0.04,2.87483
0.04,2.947441
0.04,3.020089
0.04,3.08997
0.04,3.16067
0.04,3.224236
0.04,3.28933
0.04,3.352987
0.04,3.4142
0.04,3.47466
0.04,3.52885
0.04,3.58694
0.04,3.60261
0.04,3.61812
0.04,3.648941
0.04,3.68369
0.04,3.717009
0.04,3.75302
0.04,3.78836
0.04,3.82271
0.04,3.84687
0.04,3.87578