File: charging_cycle_159.csv
control/mA,Ewe/V
-0.04,-3.347857
-0.04,-3.3814
-0.04,-3.4132
-0.04,-3.44249
-0.04,-3.47233
-0.04,-3.50128
-0.04,-3.52991
-0.04,-3.55828
-0.04,-3.58559
-0.04,-3.6133
0.04,-2.94169
0.04,-1.941556
0.04,-0.941373
0.04,0.05863756
0.04,0.648529
0.04,0.7949314
0.04,0.8793152
0.04,0.9566002
0.04,1.03709
0.04,1.11573
0.04,1.1904
0.04,1.27192
0.04,1.365772
0.04,1.46994
0.04,1.58362
0.04,1.70924
0.04,1.83252
0.04,1.94175
0.04,2.032637
0.04,2.10034
0.04,2.14679
0.04,2.19224
0.04,2.231133
0.04,2.2731
0.04,2.31126
0.04,2.35464
0.04,2.397973
0.04,2.44579
0.04,2.49684
0.04,2.55313
0.04,2.61065
0.04,2.678241
0.04,2.752053
0.04,2.8331
0.04,2.92031
0.04,3.01106
0.04,3.10489
0.04,3.20378
0.04,3.30599
0.04,3.40991
0.04,3.517461
0.04,3.630068
0.04,3.75292
0.04,3.88572
0.04,4.01565
0.04,4.13097
0.04,4.224427
0.04,4.30057
0.04,4.362281
0.04,4.413938
0.04,4.457828
0.04,4.49687
0.04,4.531926
0.04,4.56261
0.04,4.593067
0.04,4.621577
0.04,4.6499
0.04,4.67623
0.04,4.703308
0.04,4.72852
0.04,4.752809
0.04,4.77651
0.04,4.797882