File: charging_cycle_38.csv
control/mA,Ewe/V
-0.01,-0.497274
-0.01,-0.4987054
-0.01,-0.5000984
-0.01,-0.5021021
-0.01,-0.503457
-0.01,-0.505098
-0.01,-0.5065674
-0.01,-0.5081322
-0.01,-0.5096588
-0.01,-0.5111664
0.01,-0.2457763
0.01,0.2259228
0.01,0.264031
0.01,0.288819
0.01,0.308131
0.01,0.323932
0.01,0.337557
0.01,0.349522
0.01,0.3601125
0.01,0.368585
0.01,0.376543
0.01,0.383985
0.01,0.39074
0.01,0.3973429
0.01,0.403087
0.01,0.408869
0.01,0.414174
0.01,0.419135
0.01,0.423772
0.01,0.42841
0.01,0.432818
0.01,0.437016
0.01,0.440508
0.01,0.443618
0.01,0.446634
0.01,0.449591
0.01,0.447664
0.01,0.443065
0.01,0.4438093
0.01,0.4459275
0.01,0.448427
0.01,0.450984
0.01,0.453389
0.01,0.455755
0.01,0.4581023
0.01,0.4603922
0.01,0.462339
0.01,0.464132
0.01,0.4662506
0.01,0.468083
0.01,0.469953
0.01,0.472262
0.01,0.4743035
0.01,0.476422
0.01,0.478406
0.01,0.4802764
0.01,0.4823755
0.01,0.484379
0.01,0.486593
0.01,0.4885583
0.01,0.490371
0.01,0.49226
0.01,0.493901
0.01,0.495867
0.01,0.497794
0.01,0.499321
0.01,0.500809
0.01,0.5025078
0.01,0.5041298
0.01,0.5057709
0.01,0.507393