File: charging_cycle_101.csv
control/mA,Ewe/V
-0.01,-0.664687
-0.01,-0.6708506
-0.01,-0.675221
-0.01,-0.68169
-0.01,-0.6871854
-0.01,-0.6931965
-0.01,-0.697986
-0.01,-0.702375
-0.01,-0.7066498
-0.01,-0.7106571
0.01,-0.396787
0.01,0.217813
0.01,0.269412
0.01,0.299391
0.01,0.32063
0.01,0.33832
0.01,0.3519451
0.01,0.366677
0.01,0.378966
0.01,0.391561
0.01,0.40343
0.01,0.4143456
0.01,0.4251655
0.01,0.434917
0.01,0.44442
0.01,0.4536369
0.01,0.462415
0.01,0.4717846
0.01,0.48041
0.01,0.488196
0.01,0.4958288
0.01,0.503309
0.01,0.511362
0.01,0.518976
0.01,0.525731
0.01,0.5328684
0.01,0.5398336
0.01,0.5464744
0.01,0.5541838
0.01,0.5611299
0.01,0.5675608
0.01,0.574125
0.01,0.5808424
0.01,0.586911
0.01,0.594143
0.01,0.600822
0.01,0.6075582
0.01,0.6137982
0.01,0.620439
0.01,0.627442
0.01,0.633816
0.01,0.6407621
0.01,0.647536
0.01,0.6538147
0.01,0.6608944
0.01,0.6678977
0.01,0.6750538
0.01,0.682572
0.01,0.689461
0.01,0.695644
0.01,0.7033916
0.01,0.7114636
0.01,0.7193638
0.01,0.726157
0.01,0.734344
0.01,0.7424157
0.01,0.7502397
0.01,0.756995
0.01,0.764972
0.01,0.773024
0.01,0.780887