File: charging_cycle_230.csv
control/mA,Ewe/V
-0.08,-6.498773
-0.08,-6.55198
-0.08,-6.6052
-0.08,-6.65777
-0.08,-6.706202
-0.08,-6.752707
-0.08,-6.79738
-0.08,-6.84312
-0.08,-6.88829
-0.08,-6.914414
0.08,-5.81788
0.08,-4.70364
0.08,-3.68933
0.08,-2.68865
0.08,-1.68856
0.08,-0.6885273
0.08,0.142907
0.08,0.555997
0.08,0.8014004
0.08,0.929407
0.08,1.02286
0.08,1.11856
0.08,1.21681
0.08,1.31898
0.08,1.43249
0.08,1.56862
0.08,1.74823
0.08,1.95459
0.08,2.13498
0.08,2.27573
0.08,2.39963
0.08,2.53226
0.08,2.68507
0.08,2.860672
0.08,3.04679
0.08,3.238109
0.08,3.4347
0.08,3.629152
0.08,3.80899
0.08,3.97442
0.08,4.132879
0.08,4.291026
0.08,4.45107
0.08,4.60616
0.08,4.742771
0.08,4.85534
0.08,4.948216
0.08,5.027753
0.08,5.097519
0.08,5.161828
0.08,5.221404
0.08,5.278118
0.08,5.330996
0.08,5.37981
0.08,5.42599
0.08,5.46851
0.08,5.50499
0.08,5.541059
0.08,5.570542
0.08,5.595101
0.08,5.617848
0.08,5.63758
0.08,5.655765
0.08,5.67227
0.08,5.68653
0.08,5.699751
0.08,5.710647
0.08,5.721467
0.08,5.732821
0.08,5.74166
0.08,5.75051
0.08,5.757877
0.08,5.76436
0.08,5.770548
0.08,5.7761
0.08,5.77887