File: charging_cycle_110.csv
control/mA,Ewe/V
-0.02,-1.4704
-0.02,-1.5023
-0.02,-1.53598
-0.02,-1.57014
-0.02,-1.60344
-0.02,-1.6359
-0.02,-1.67016
-0.02,-1.7022
-0.02,-1.73569
-0.02,-1.7488
0.02,-1.07369
0.02,-0.073682
0.02,0.4389432
0.02,0.492566
0.02,0.530006
0.02,0.5588209
0.02,0.58319
0.02,0.605459
0.02,0.6278431
0.02,0.6514484
0.02,0.6761987
0.02,0.701999
0.02,0.729363
0.02,0.756136
0.02,0.781058
0.02,0.803709
0.02,0.8248722
0.02,0.843974
0.02,0.8638773
0.02,0.8847156
0.02,0.9043517
0.02,0.926736
0.02,0.9501693
0.02,0.9753776
0.02,1.00154
0.02,1.03011
0.02,1.059895
0.02,1.09224
0.02,1.1256
0.02,1.16212
0.02,1.19803
0.02,1.2399
0.02,1.28291
0.02,1.32868
0.02,1.37678
0.02,1.42722
0.02,1.48015
0.02,1.534654
0.02,1.59162
0.02,1.64797
0.02,1.70768
0.02,1.76836
0.02,1.82763
0.02,1.88906
0.02,1.94757
0.02,2.00497
0.02,2.05891
0.02,2.11118
0.02,2.15973
0.02,2.204398
0.02,2.24884
0.02,2.29126
0.02,2.33122
0.02,2.37082
0.02,2.41022
0.02,2.44608
0.02,2.484914
0.02,2.52188
0.02,2.5592
0.02,2.594964
0.02,2.63103
0.02,2.664406