File: charging_cycle_270.csv
control/mA,Ewe/V
0.08,2.07893
0.08,2.164
0.08,2.25037
0.08,2.35376
0.08,2.483292
0.08,2.64996
0.08,2.78556
0.0,2.78554
0.0,0.176954
0.0,0.177011
0.16,0.176763
0.16,1.17702
0.16,2.17723
0.16,3.17725
0.16,4.026092
0.16,4.50258
0.16,4.939533
0.16,5.28361
0.16,5.467781
0.16,5.56007
0.16,5.617676
0.16,5.66023
0.16,5.692881
0.16,5.72141
0.16,5.74332
0.16,5.762609
0.16,5.77854
0.16,5.792588
0.16,5.803847
0.16,5.814247
0.16,5.821422
0.16,5.827376
0.16,5.83232
0.16,5.835582
0.16,5.83755
0.16,5.839398
0.16,5.84014
0.16,5.83972
0.16,5.838616
0.16,5.83883
0.16,5.83789
0.16,5.838024