File: charging_cycle_193.csv
control/mA,Ewe/V
-0.08,-5.26415
-0.08,-5.29986
-0.08,-5.331554
-0.08,-5.357926
-0.08,-5.38104
-0.08,-5.39819
-0.08,-5.41382
-0.08,-5.427292
-0.08,-5.438684
-0.08,-5.44643
0.08,-4.62783
0.08,-3.62777
0.08,-2.627685
0.08,-1.62744
0.08,-0.6274244
0.08,0.3725926
0.08,0.8760139
0.08,1.01541
0.08,1.09552
0.08,1.18433
0.08,1.288716
0.08,1.4043
0.08,1.54788
0.08,1.72363
0.08,1.91087
0.08,2.04641
0.08,2.13219
0.08,2.19927
0.08,2.259757
0.08,2.321356
0.08,2.38971
0.08,2.4693
0.08,2.56371
0.08,2.67538
0.08,2.80438
0.08,2.94542
0.08,3.08848
0.08,3.23708
0.08,3.38957
0.08,3.5432
0.08,3.69218
0.08,3.83227
0.08,3.96713
0.08,4.10424
0.08,4.24544
0.08,4.390123
0.08,4.533472
0.08,4.664208
0.08,4.77739
0.08,4.871179
0.08,4.946651
0.08,5.010826
0.08,5.0658
0.08,5.115094
0.08,5.16131
0.08,5.20396
0.08,5.24545
0.08,5.28533
0.08,5.321493
0.08,5.353
0.08,5.378226
0.08,5.398797
0.08,5.41494
0.08,5.427994
0.08,5.43929
0.08,5.44992
0.08,5.459175
0.08,5.46549
0.08,5.471712
0.08,5.47738
0.08,5.482322
0.08,5.48721
0.08,5.49163
0.08,5.49597
0.08,5.49755