File: charging_cycle_97.csv
control/mA,Ewe/V
-0.01,-0.650489
-0.01,-0.6559088
-0.01,-0.661176
-0.01,-0.6647632
-0.01,-0.6698583
-0.01,-0.675335
-0.01,-0.6807354
-0.01,-0.684552
-0.01,-0.689666
-0.01,-0.694971
0.01,-0.385886
0.01,0.21724
0.01,0.2682292
0.01,0.297712
0.01,0.319104
0.01,0.3368125
0.01,0.351792
0.01,0.3659518
0.01,0.378432
0.01,0.3908166
0.01,0.403106
0.01,0.413277
0.01,0.4238297
0.01,0.433963
0.01,0.443523
0.01,0.452626
0.01,0.461194
0.01,0.4687886
0.01,0.4773949
0.01,0.485391
0.01,0.493234
0.01,0.500523
0.01,0.507736
0.01,0.5155604
0.01,0.5224683
0.01,0.5290137
0.01,0.535693
0.01,0.5425242
0.01,0.548822
0.01,0.556016
0.01,0.561359
0.01,0.568267
0.01,0.5744878
0.01,0.580919
0.01,0.5871969
0.01,0.593513
0.01,0.6000587
0.01,0.6071765
0.01,0.6129395
0.01,0.619752
0.01,0.6259539
0.01,0.6322703
0.01,0.638892
0.01,0.645323
0.01,0.6522117
0.01,0.6588144
0.01,0.6652071
0.01,0.6721913
0.01,0.678813
0.01,0.685225
0.01,0.692152
0.01,0.7000712
0.01,0.706292
0.01,0.713582
0.01,0.7205088
0.01,0.728066
0.01,0.7349735
0.01,0.7428737
0.01,0.7496481
0.01,0.7579109
0.01,0.7645517