File: charging_cycle_51.csv
control/mA,Ewe/V
-0.01,-0.5056133
-0.01,-0.5079223
-0.01,-0.5105367
-0.01,-0.512941
-0.01,-0.5151928
-0.01,-0.5175591
-0.01,-0.5199063
-0.01,-0.5221962
-0.01,-0.524314
-0.01,-0.5263753
0.01,-0.272628
0.01,0.200218
0.01,0.24512
0.01,0.2728472
0.01,0.293762
0.01,0.3109554
0.01,0.3259735
0.01,0.3391406
0.01,0.351182
0.01,0.3616391
0.01,0.371448
0.01,0.380397
0.01,0.3889465
0.01,0.396675
0.01,0.4044035
0.01,0.411712
0.01,0.4180095
0.01,0.42444
0.01,0.430547
0.01,0.436424
0.01,0.4424926
0.01,0.448008
0.01,0.453026
0.01,0.4579496
0.01,0.4629302
0.01,0.467644
0.01,0.472395
0.01,0.477128
0.01,0.481402
0.01,0.4856768
0.01,0.489799
0.01,0.4938824
0.01,0.497871
0.01,0.5015155
0.01,0.505408
0.01,0.5091677
0.01,0.512736
0.01,0.5165527
0.01,0.519549
0.01,0.5231362
0.01,0.5268001
0.01,0.530235
0.01,0.5335554
0.01,0.5365704
0.01,0.5397954
0.01,0.5430395
0.01,0.546264
0.01,0.549165
0.01,0.5520847
0.01,0.555138
0.01,0.558382
0.01,0.5611681
0.01,0.563687
0.01,0.566301
0.01,0.5686485
0.01,0.571091
0.01,0.5738008
0.01,0.5763961
0.01,0.578762
0.01,0.5810332
0.01,0.583361