File: charging_cycle_257.csv
control/mA,Ewe/V
-0.08,-5.371876
-0.08,-5.39519
-0.08,-5.41661
-0.08,-5.435803
-0.08,-5.45336
-0.08,-5.468243
-0.08,-5.48233
-0.08,-5.49523
-0.08,-5.507363
-0.08,-5.513355
0.08,-4.75134
0.08,-3.745417
0.08,-2.745082
0.08,-1.745023
0.08,-0.7449549
0.08,0.161436
0.08,0.5859756
0.08,0.808347
0.08,0.924465
0.08,1.00123
0.08,1.06459
0.08,1.12873
0.08,1.19668
0.08,1.27866
0.08,1.37808
0.08,1.50803
0.08,1.67203
0.08,1.8536
0.08,2.011875
0.08,2.127
0.08,2.21804
0.08,2.31401
0.08,2.42015
0.08,2.54172
0.08,2.68551
0.08,2.83798
0.08,3.00291
0.08,3.168934
0.08,3.3385
0.08,3.50504
0.08,3.65692
0.08,3.79147
0.08,3.91713
0.08,4.03544
0.08,4.149252
0.08,4.26015
0.08,4.36764
0.08,4.473495
0.08,4.56315
0.08,4.65556
0.08,4.72854
0.08,4.80618
0.08,4.8737
0.08,4.93574
0.08,4.9927
0.08,5.04472
0.08,5.095401
0.08,5.140627
0.08,5.180739
0.08,5.217912
0.08,5.25009
0.08,5.27484
0.08,5.293594
0.08,5.310826
0.08,5.32483
0.08,5.33731
0.08,5.34748
0.08,5.35529
0.08,5.3638
0.08,5.368112
0.08,5.376394
0.08,5.381966
0.08,5.38637
0.08,5.390744
0.08,5.39265