File: charging_cycle_12.csv
control/mA,Ewe/V
-0.01,-1.9343
-0.01,-1.94531
-0.01,-1.95596
-0.01,-1.96617
-0.01,-1.977101
-0.01,-1.98746
-0.01,-1.99779
-0.01,-2.008492
-0.01,-2.01891
-0.01,-2.02849
0.01,-0.7566814
0.01,0.251723
0.01,1.04774
0.01,1.09058
0.01,1.1198
0.01,1.14304
0.01,1.163247
0.01,1.18056
0.01,1.197157
0.01,1.21252
0.01,1.22656
0.01,1.23994
0.01,1.25259
0.01,1.26439
0.01,1.27612
0.01,1.28765
0.01,1.29864
0.01,1.309726
0.01,1.32037
0.01,1.33148
0.01,1.34171
0.01,1.35182
0.01,1.36217
0.01,1.37278
0.01,1.38228
0.01,1.392545
0.01,1.40247
0.01,1.41283
0.01,1.42361
0.01,1.43344
0.01,1.44357
0.01,1.45361
0.01,1.46344
0.01,1.47368
0.01,1.48372
0.01,1.49298
0.01,1.50307
0.01,1.51258
0.01,1.5221
0.01,1.53227
0.01,1.54175
0.01,1.551237
0.01,1.56061
0.01,1.57036
0.01,1.57988
0.01,1.5895
0.01,1.59892
0.01,1.60808
0.01,1.6173
0.01,1.62696
0.01,1.63617
0.01,1.64543
0.01,1.65421
0.01,1.66321
0.01,1.67251
0.01,1.68161
0.01,1.69064
0.01,1.69489
0.01,1.7021
0.01,1.71022
0.01,1.7188
0.01,1.72687