File: charging_cycle_109.csv
control/mA,Ewe/V
-0.02,-1.44733
-0.02,-1.48032
-0.02,-1.51093
-0.02,-1.54623
-0.02,-1.57965
-0.02,-1.61365
-0.02,-1.6472
-0.02,-1.67916
-0.02,-1.71218
-0.02,-1.72254
0.02,-1.04836
0.02,-0.04832109
0.02,0.44026
0.02,0.493367
0.02,0.5300823
0.02,0.5585346
0.02,0.583361
0.02,0.6058216
0.02,0.6279957
0.02,0.6516774
0.02,0.6764468
0.02,0.702437
0.02,0.7290388
0.02,0.755239
0.02,0.779894
0.02,0.80203
0.02,0.822296
0.02,0.842581
0.02,0.862332
0.02,0.882597
0.02,0.902768
0.02,0.923358
0.02,0.946315
0.02,0.970397
0.02,0.995682
0.02,1.021844
0.02,1.05146
0.02,1.08161
0.02,1.11464
0.02,1.14874
0.02,1.18273
0.02,1.22256
0.02,1.26341
0.02,1.30709
0.02,1.35178
0.02,1.3992
0.02,1.44892
0.02,1.499332
0.02,1.5537
0.02,1.60852
0.02,1.66486
0.02,1.72292
0.02,1.78004
0.02,1.83773
0.02,1.89639
0.02,1.95526
0.02,2.00989
0.02,2.06168
0.02,2.11191
0.02,2.15843
0.02,2.20154
0.02,2.24518
0.02,2.28718
0.02,2.326451
0.02,2.36492
0.02,2.40238
0.02,2.43984
0.02,2.47701
0.02,2.51335
0.02,2.5492
0.02,2.585003
0.02,2.61748