File: charging_cycle_242.csv
control/mA,Ewe/V
-0.08,-6.43689
-0.08,-6.48982
-0.08,-6.545106
-0.08,-6.60615
-0.08,-6.669277
-0.08,-6.73114
-0.08,-6.78383
-0.08,-6.82906
-0.08,-6.86848
-0.08,-6.8973
0.08,-5.80778
0.08,-4.710264
0.08,-3.6883
0.08,-2.68797
0.08,-1.68795
0.08,-0.687898
0.08,0.169394
0.08,0.5573897
0.08,0.781822
0.08,0.8904404
0.08,0.976542
0.08,1.06785
0.08,1.16542
0.08,1.26824
0.08,1.38426
0.08,1.5158
0.08,1.69125
0.08,1.90805
0.08,2.113223
0.08,2.270367
0.08,2.404404
0.08,2.54596
0.08,2.71282
0.08,2.90092
0.08,3.09249
0.08,3.290472
0.08,3.49199
0.08,3.687488
0.08,3.86761
0.08,4.0433
0.08,4.21012
0.08,4.377738
0.08,4.540094
0.08,4.691878
0.08,4.81811
0.08,4.92387
0.08,5.01319
0.08,5.09168
0.08,5.162095
0.08,5.22703
0.08,5.287621
0.08,5.34355
0.08,5.39502
0.08,5.44414
0.08,5.487131
0.08,5.524953
0.08,5.55779
0.08,5.5873
0.08,5.61466
0.08,5.63899
0.08,5.66048
0.08,5.68105
0.08,5.698854
0.08,5.71412
0.08,5.728852
0.08,5.74118
0.08,5.75345
0.08,5.764842
0.08,5.77402
0.08,5.782589
0.08,5.78875
0.08,5.796405
0.08,5.802
0.08,5.808198
0.08,5.8132
0.08,5.814724