File: charging_cycle_10.csv
control/mA,Ewe/V
-0.01,-1.90218
-0.01,-1.91346
-0.01,-1.92449
-0.01,-1.93592
-0.01,-1.94653
-0.01,-1.95716
-0.01,-1.96775
-0.01,-1.97794
-0.01,-1.9883
-0.01,-1.99855
0.01,-0.732635
0.01,0.281969
0.01,1.0236
0.01,1.06755
0.01,1.09714
0.01,1.12119
0.01,1.14189
0.01,1.159774
0.01,1.17603
0.01,1.19143
0.01,1.20559
0.01,1.21866
0.01,1.23101
0.01,1.2429
0.01,1.25431
0.01,1.26528
0.01,1.27589
0.01,1.28604
0.01,1.296101
0.01,1.30642
0.01,1.3164
0.01,1.32663
0.01,1.33633
0.01,1.34619
0.01,1.35606
0.01,1.36596
0.01,1.3756
0.01,1.38545
0.01,1.3956
0.01,1.40516
0.01,1.41506
0.01,1.42499
0.01,1.43415
0.01,1.44432
0.01,1.4534
0.01,1.46241
0.01,1.47176
0.01,1.48115
0.01,1.49063
0.01,1.49952
0.01,1.50918
0.01,1.518262
0.01,1.52763
0.01,1.53683
0.01,1.54607
0.01,1.55486
0.01,1.564404
0.01,1.573163
0.01,1.58209
0.01,1.59144
0.01,1.60013
0.01,1.60858
0.01,1.61734
0.01,1.62614
0.01,1.63541
0.01,1.64406
0.01,1.65323
0.01,1.661745
0.01,1.67026
0.01,1.67863
0.01,1.6881
0.01,1.69602