File: charging_cycle_201.csv
control/mA,Ewe/V
-0.08,-5.58957
-0.08,-5.6053
-0.08,-5.619741
-0.08,-5.63392
-0.08,-5.647201
-0.08,-5.66085
-0.08,-5.672123
-0.08,-5.68308
-0.08,-5.69369
-0.08,-5.699965
0.08,-4.826368
0.08,-3.82373
0.08,-2.82365
0.08,-1.82354
0.08,-0.8234994
0.08,0.176512
0.08,0.770448
0.08,0.951009
0.08,1.038198
0.08,1.11659
0.08,1.2037
0.08,1.30081
0.08,1.40875
0.08,1.53899
0.08,1.70523
0.08,1.90644
0.08,2.08632
0.08,2.21237
0.08,2.31126
0.08,2.404194
0.08,2.50108
0.08,2.607196
0.08,2.73085
0.08,2.87874
0.08,3.04927
0.08,3.22975
0.08,3.41434
0.08,3.60438
0.08,3.78929
0.08,3.95965
0.08,4.113281
0.08,4.26057
0.08,4.40627
0.08,4.555379
0.08,4.708117
0.08,4.853337
0.08,4.982317
0.08,5.08962
0.08,5.17572
0.08,5.245181
0.08,5.3018
0.08,5.3472
0.08,5.38095
0.08,5.40645
0.08,5.42786
0.08,5.44481
0.08,5.45927
0.08,5.47156
0.08,5.483849
0.08,5.49465
0.08,5.503714
0.08,5.51289
0.08,5.519877
0.08,5.527758
0.08,5.533483
0.08,5.540181
0.08,5.54688
0.08,5.552642
0.08,5.56007
0.08,5.56537
0.08,5.569912
0.08,5.57459
0.08,5.57903
0.08,5.583804
0.08,5.586724