File: charging_cycle_129.csv
control/mA,Ewe/V
-0.02,-2.22053
-0.02,-2.25711
-0.02,-2.28911
-0.02,-2.32247
-0.02,-2.35214
-0.02,-2.38122
-0.02,-2.40967
-0.02,-2.43563
-0.02,-2.462648
-0.02,-2.47297
0.02,-1.74354
0.02,-0.743447
0.02,0.256665
0.02,0.4078
0.02,0.479131
0.02,0.5224874
0.02,0.551932
0.02,0.577522
0.02,0.602635
0.02,0.6281866
0.02,0.6551314
0.02,0.6834883
0.02,0.713505
0.02,0.744076
0.02,0.774303
0.02,0.8027935
0.02,0.828803
0.02,0.853305
0.02,0.8764719
0.02,0.899257
0.02,0.92311
0.02,0.9482992
0.02,0.9752631
0.02,1.00347
0.02,1.03255
0.02,1.06503
0.02,1.10024
0.02,1.13735
0.02,1.1762
0.02,1.21689
0.02,1.261523
0.02,1.30828
0.02,1.359093
0.02,1.41266
0.02,1.47071
0.02,1.52994
0.02,1.59526
0.02,1.66388
0.02,1.73348
0.02,1.80803
0.02,1.88421
0.02,1.95779
0.02,2.03351
0.02,2.10569
0.02,2.17251
0.02,2.23379
0.02,2.29155
0.02,2.345114
0.02,2.39652
0.02,2.44528
0.02,2.49247
0.02,2.54044
0.02,2.587312
0.02,2.632347
0.02,2.67664
0.02,2.71946
0.02,2.76295
0.02,2.80606
0.02,2.84792
0.02,2.8901
0.02,2.93134
0.02,2.97202
0.02,2.97261