File: charging_cycle_123.csv
control/mA,Ewe/V
-0.02,-1.96533
-0.02,-2.00588
-0.02,-2.0487
-0.02,-2.09097
-0.02,-2.13001
-0.02,-2.16888
-0.02,-2.20137
-0.02,-2.235201
-0.02,-2.26699
-0.02,-2.28035
0.02,-1.57089
0.02,-0.5707869
0.02,0.390111
0.02,0.4761736
0.02,0.5136521
0.02,0.5407114
0.02,0.5643358
0.02,0.587464
0.02,0.610325
0.02,0.634751
0.02,0.6603028
0.02,0.6871522
0.02,0.7150511
0.02,0.74419
0.02,0.7720703
0.02,0.79829
0.02,0.8221815
0.02,0.844699
0.02,0.866453
0.02,0.8881505
0.02,0.9104009
0.02,0.933682
0.02,0.9598443
0.02,0.9870753
0.02,1.01662
0.02,1.047663
0.02,1.08045
0.02,1.11646
0.02,1.15542
0.02,1.19477
0.02,1.23773
0.02,1.28263
0.02,1.33148
0.02,1.38306
0.02,1.4397
0.02,1.49863
0.02,1.55994
0.02,1.62619
0.02,1.69346
0.02,1.76452
0.02,1.83698
0.02,1.9119
0.02,1.986094
0.02,2.05748
0.02,2.12717
0.02,2.18994
0.02,2.25111
0.02,2.306815
0.02,2.35912
0.02,2.41242
0.02,2.4585
0.02,2.510332
0.02,2.555711
0.02,2.60244
0.02,2.64769
0.02,2.69271
0.02,2.735623
0.02,2.767987
0.02,2.81777
0.02,2.847085
0.02,2.899639
0.02,2.9367