File: charging_cycle_135.csv
control/mA,Ewe/V
-0.04,-3.17107
-0.04,-3.20262
-0.04,-3.2375
-0.04,-3.266431
-0.04,-3.30095
-0.04,-3.33129
-0.04,-3.365623
-0.04,-3.400907
-0.04,-3.43631
-0.04,-3.45541
0.04,-2.38847
0.04,-1.38841
0.04,-0.388375
0.04,0.145941
0.04,0.351125
0.04,0.484837
0.04,0.5820637
0.04,0.6515629
0.04,0.70301
0.04,0.744553
0.04,0.786478
0.04,0.8307497
0.04,0.8783038
0.04,0.9207629
0.04,0.9599015
0.04,0.997132
0.04,1.03621
0.04,1.07816
0.04,1.12602
0.04,1.18046
0.04,1.23952
0.04,1.30562
0.04,1.37886
0.04,1.45834
0.04,1.54746
0.04,1.64407
0.04,1.74584
0.04,1.84952
0.04,1.9527
0.04,2.04472
0.04,2.125436
0.04,2.19471
0.04,2.25495
0.04,2.309143
0.04,2.35841
0.04,2.405549
0.04,2.45016
0.04,2.4936
0.04,2.537258
0.04,2.57815
0.04,2.62015
0.04,2.66391
0.04,2.70738
0.04,2.75077
0.04,2.794035
0.04,2.8397
0.04,2.884716
0.04,2.929179
0.04,2.97278
0.04,3.01461
0.04,3.05907
0.04,3.09821
0.04,3.1388
0.04,3.18304
0.04,3.22391
0.04,3.262287
0.04,3.30494
0.04,3.34715
0.04,3.3873
0.04,3.42852
0.04,3.46641
0.04,3.50094
0.04,3.52378