File: charging_cycle_87.csv
control/mA,Ewe/V
-0.01,-0.619213
-0.01,-0.62364
-0.01,-0.6283152
-0.01,-0.631483
-0.01,-0.6362345
-0.01,-0.639841
-0.01,-0.6421884
-0.01,-0.6474361
-0.01,-0.6505084
-0.01,-0.653409
0.01,-0.35679
0.01,0.21226
0.01,0.262943
0.01,0.292636
0.01,0.31294
0.01,0.33145
0.01,0.3455142
0.01,0.359063
0.01,0.371066
0.01,0.382172
0.01,0.392629
0.01,0.403449
0.01,0.412647
0.01,0.422227
0.01,0.430928
0.01,0.4395157
0.01,0.447759
0.01,0.455259
0.01,0.4629302
0.01,0.4704488
0.01,0.4777193
0.01,0.484513
0.01,0.4916497
0.01,0.497909
0.01,0.5044542
0.01,0.510389
0.01,0.516572
0.01,0.522621
0.01,0.5284221
0.01,0.534281
0.01,0.5397191
0.01,0.5456157
0.01,0.551684
0.01,0.5572752
0.01,0.563286
0.01,0.5690111
0.01,0.5749076
0.01,0.580289
0.01,0.5858611
0.01,0.591643
0.01,0.5974825
0.01,0.6022723
0.01,0.608703
0.01,0.6145615
0.01,0.6201337
0.01,0.6260875
0.01,0.631469
0.01,0.6371555
0.01,0.642938
0.01,0.649044
0.01,0.6545398
0.01,0.6600929
0.01,0.6658559
0.01,0.6715616
0.01,0.677286
0.01,0.6830494
0.01,0.688125
0.01,0.6943273
0.01,0.700472
0.01,0.7065021
0.01,0.7122078