File: charging_cycle_76.csv
control/mA,Ewe/V
-0.01,-0.5868866
-0.01,-0.5910085
-0.01,-0.5941953
-0.01,-0.5979355
-0.01,-0.6021146
-0.01,-0.6057976
-0.01,-0.6084501
-0.01,-0.6117323
-0.01,-0.615587
-0.01,-0.6186021
0.01,-0.3342669
0.01,0.210828
0.01,0.261111
0.01,0.290594
0.01,0.311318
0.01,0.3278627
0.01,0.341373
0.01,0.354617
0.01,0.3662762
0.01,0.3769053
0.01,0.3865993
0.01,0.3961216
0.01,0.405529
0.01,0.4140212
0.01,0.421921
0.01,0.4294782
0.01,0.4368823
0.01,0.4443627
0.01,0.451194
0.01,0.457911
0.01,0.463846
0.01,0.470163
0.01,0.476479
0.01,0.483082
0.01,0.4889018
0.01,0.495027
0.01,0.5006568
0.01,0.5063434
0.01,0.511935
0.01,0.5173732
0.01,0.522297
0.01,0.5272008
0.01,0.5323341
0.01,0.5378108
0.01,0.542734
0.01,0.547963
0.01,0.5531151
0.01,0.557695
0.01,0.562637
0.01,0.568076
0.01,0.573247
0.01,0.5779418
0.01,0.5826934
0.01,0.587388
0.01,0.592674
0.01,0.597635
0.01,0.6021578
0.01,0.607119
0.01,0.612004
0.01,0.6162408
0.01,0.6212023
0.01,0.625935
0.01,0.6299804
0.01,0.63519
0.01,0.6395981
0.01,0.644216
0.01,0.6487959
0.01,0.6535666
0.01,0.6578221
0.01,0.662364
0.01,0.6667909