File: charging_cycle_174.csv
control/mA,Ewe/V
-0.04,-4.054757
-0.04,-4.13813
-0.04,-4.212753
-0.04,-4.272787
-0.04,-4.32431
-0.04,-4.369804
-0.04,-4.41013
-0.04,-4.44436
-0.04,-4.47495
-0.04,-4.50249
0.04,-3.81554
0.04,-2.81523
0.04,-1.81518
0.04,-0.8151602
0.04,0.184908
0.04,0.7169212
0.04,0.840844
0.04,0.923663
0.04,1.003143
0.04,1.08968
0.04,1.17756
0.04,1.26841
0.04,1.36612
0.04,1.47752
0.04,1.60473
0.04,1.74493
0.04,1.88215
0.04,1.9888
0.04,2.06183
0.04,2.113185
0.04,2.15389
0.04,2.191195
0.04,2.22756
0.04,2.26237
0.04,2.297827
0.04,2.33223
0.04,2.36872
0.04,2.40736
0.04,2.44973
0.04,2.49564
0.04,2.54636
0.04,2.601433
0.04,2.6625
0.04,2.7298
0.04,2.80043
0.04,2.87109
0.04,2.95141
0.04,3.033714
0.04,3.11959
0.04,3.209485
0.04,3.3024
0.04,3.3948
0.04,3.49029
0.04,3.58847
0.04,3.692316
0.04,3.805133
0.04,3.92251
0.04,4.0447
0.04,4.158335
0.04,4.2583
0.04,4.344897
0.04,4.41661
0.04,4.476739
0.04,4.52994
0.04,4.577782
0.04,4.62146
0.04,4.663845
0.04,4.70377
0.04,4.73958
0.04,4.774735
0.04,4.808874
0.04,4.84105
0.04,4.87278
0.04,4.89488