File: charging_cycle_233.csv
control/mA,Ewe/V
-0.08,-6.454062
-0.08,-6.509345
-0.08,-6.570314
-0.08,-6.63174
-0.08,-6.687673
-0.08,-6.73443
-0.08,-6.77564
-0.08,-6.81795
-0.08,-6.861364
-0.08,-6.887221
0.08,-5.775
0.08,-4.69397
0.08,-3.6921
0.08,-2.69167
0.08,-1.69165
0.08,-0.6915996
0.08,0.143842
0.08,0.56592
0.08,0.8101594
0.08,0.9249229
0.08,1.01265
0.08,1.10178
0.08,1.196012
0.08,1.3024
0.08,1.41888
0.08,1.56084
0.08,1.74842
0.08,1.9661
0.08,2.148259
0.08,2.29243
0.08,2.42337
0.08,2.55936
0.08,2.72066
0.08,2.89743
0.08,3.08211
0.08,3.27189
0.08,3.468323
0.08,3.66453
0.08,3.84568
0.08,4.01615
0.08,4.18213
0.08,4.34648
0.08,4.50828
0.08,4.654552
0.08,4.78752
0.08,4.89568
0.08,4.987908
0.08,5.065632
0.08,5.135265
0.08,5.200146
0.08,5.260867
0.08,5.31791
0.08,5.37162
0.08,5.42214
0.08,5.46887
0.08,5.51102
0.08,5.549112
0.08,5.584033
0.08,5.61489
0.08,5.64088
0.08,5.66368
0.08,5.68437
0.08,5.70225
0.08,5.71761
0.08,5.73139
0.08,5.74334
0.08,5.75532
0.08,5.7652
0.08,5.77417
0.08,5.78293
0.08,5.790756
0.08,5.797015
0.08,5.80305
0.08,5.80957
0.08,5.814724
0.08,5.816785