File: charging_cycle_179.csv
control/mA,Ewe/V
-0.08,-4.97181
-0.08,-5.00511
-0.08,-5.0385
-0.08,-5.07149
-0.08,-5.103916
-0.08,-5.13449
-0.08,-5.16265
-0.08,-5.18996
-0.08,-5.21534
-0.08,-5.2224
0.08,-4.45397
0.08,-3.45267
0.08,-2.45243
0.08,-1.45241
0.08,-0.45234
0.08,0.547715
0.08,0.924255
0.08,1.03564
0.08,1.14998
0.08,1.27965
0.08,1.40497
0.08,1.54236
0.08,1.70413
0.08,1.85761
0.08,1.96403
0.08,2.033133
0.08,2.08258
0.08,2.12028
0.08,2.15015
0.08,2.18295
0.08,2.21466
0.08,2.248231
0.08,2.2854
0.08,2.32676
0.08,2.37769
0.08,2.43715
0.08,2.50745
0.08,2.590117
0.08,2.68177
0.08,2.778597
0.08,2.87857
0.08,2.9821
0.08,3.09358
0.08,3.21309
0.08,3.3356
0.08,3.45903
0.08,3.587342
0.08,3.72861
0.08,3.88181
0.08,4.03752
0.08,4.17656
0.08,4.29347
0.08,4.39449
0.08,4.474373
0.08,4.54168
0.08,4.59769
0.08,4.647606
0.08,4.692832
0.08,4.735749
0.08,4.77632
0.08,4.8154
0.08,4.82614
0.08,4.881293
0.08,4.923485
0.08,4.96352
0.08,5.00233
0.08,5.04029
0.08,5.069906
0.08,5.10101
0.08,5.132517
0.08,5.16381
0.08,5.195833
0.08,5.22663
0.08,5.255448
0.08,5.263272