File: charging_cycle_137.csv
control/mA,Ewe/V
-0.04,-2.65424
-0.04,-2.68147
-0.04,-2.70918
-0.04,-2.73383
-0.04,-2.76085
-0.04,-2.77335
-0.04,-2.77906
-0.04,-2.773925
-0.04,-2.78024
-0.04,-2.775757
0.04,-2.00685
0.04,-1.00685
0.04,-0.0496378
0.04,0.220522
0.04,0.4054912
0.04,0.5292999
0.04,0.6103824
0.04,0.6682794
0.04,0.7182761
0.04,0.7661737
0.04,0.8158079
0.04,0.8639536
0.04,0.9068516
0.04,0.946601
0.04,0.9865028
0.04,1.02824
0.04,1.07467
0.04,1.12735
0.04,1.18601
0.04,1.25189
0.04,1.3248
0.04,1.406
0.04,1.48916
0.04,1.5858
0.04,1.68848
0.04,1.79237
0.04,1.888066
0.04,1.970885
0.04,2.03872
0.04,2.09488
0.04,2.14276
0.04,2.18408
0.04,2.22197
0.04,2.25934
0.04,2.29594
0.04,2.33305
0.04,2.36916
0.04,2.40519
0.04,2.44398
0.04,2.482128
0.04,2.520675
0.04,2.560577
0.04,2.60138
0.04,2.64477
0.04,2.68933
0.04,2.73627
0.04,2.7844
0.04,2.83289
0.04,2.88088
0.04,2.928282
0.04,2.97565
0.04,3.020318
0.04,3.06518
0.04,3.10844
0.04,3.151588
0.04,3.19233
0.04,3.2321
0.04,3.27095
0.04,3.30933
0.04,3.34803
0.04,3.383844
0.04,3.41518