File: charging_cycle_163.csv
control/mA,Ewe/V
-0.04,-3.64509
-0.04,-3.7168
-0.04,-3.7872
-0.04,-3.85271
-0.04,-3.912057
-0.04,-3.96438
-0.04,-4.011993
-0.04,-4.053002
-0.04,-4.09105
-0.04,-4.12179
0.04,-3.44739
0.04,-2.447048
0.04,-1.44703
0.04,-0.446997
0.04,0.538593
0.04,0.787222
0.04,0.8847156
0.04,0.961905
0.04,1.044438
0.04,1.12565
0.04,1.203607
0.04,1.28587
0.04,1.38079
0.04,1.4859
0.04,1.60488
0.04,1.73344
0.04,1.86104
0.04,1.96968
0.04,2.04876
0.04,2.1066
0.04,2.15341
0.04,2.19627
0.04,2.23751
0.04,2.277542
0.04,2.31687
0.04,2.35532
0.04,2.39881
0.04,2.44425
0.04,2.49325
0.04,2.546742
0.04,2.60531
0.04,2.66689
0.04,2.739573
0.04,2.81783
0.04,2.89983
0.04,2.98469
0.04,3.074532
0.04,3.165423
0.04,3.26433
0.04,3.36499
0.04,3.46823
0.04,3.57074
0.04,3.682622
0.04,3.80216
0.04,3.934113
0.04,4.05624
0.04,4.16438
0.04,4.255685
0.04,4.330489
0.04,4.39121
0.04,4.44403
0.04,4.490402
0.04,4.529579
0.04,4.568355
0.04,4.602437
0.04,4.63482
0.04,4.66486
0.04,4.694511
0.04,4.72346
0.04,4.750519
0.04,4.776204
0.04,4.80204
0.04,4.82698
0.04,4.83542