File: charging_cycle_158.csv
control/mA,Ewe/V
-0.04,-3.22061
-0.04,-3.25168
-0.04,-3.28229
-0.04,-3.31194
-0.04,-3.34038
-0.04,-3.3666
-0.04,-3.39325
-0.04,-3.41921
-0.04,-3.44422
-0.04,-3.46544
0.04,-2.80383
0.04,-1.8038
0.04,-0.8037106
0.04,0.1964339
0.04,0.6613714
0.04,0.793977
0.04,0.8759376
0.04,0.952364
0.04,1.03541
0.04,1.11264
0.04,1.18794
0.04,1.26855
0.04,1.35963
0.04,1.46246
0.04,1.57725
0.04,1.69701
0.04,1.82074
0.04,1.93209
0.04,2.02292
0.04,2.09319
0.04,2.14599
0.04,2.19116
0.04,2.230656
0.04,2.270367
0.04,2.30981
0.04,2.34956
0.04,2.39158
0.04,2.43933
0.04,2.4906
0.04,2.54598
0.04,2.60571
0.04,2.67158
0.04,2.74524
0.04,2.82606
0.04,2.91492
0.04,3.00727
0.04,3.10369
0.04,3.20376
0.04,3.307322
0.04,3.41426
0.04,3.52368
0.04,3.64014
0.04,3.76508
0.04,3.90274
0.04,4.031416
0.04,4.142363
0.04,4.23023
0.04,4.301235
0.04,4.35917
0.04,4.40646
0.04,4.450195
0.04,4.486872
0.04,4.52114
0.04,4.5513
0.04,4.58074
0.04,4.606864
0.04,4.63358
0.04,4.659857
0.04,4.68484
0.04,4.70819
0.04,4.72483
0.04,4.7505
0.04,4.770117