File: charging_cycle_175.csv
control/mA,Ewe/V
-0.04,-4.143893
-0.04,-4.214051
-0.04,-4.274905
-0.04,-4.32776
-0.04,-4.37354
-0.04,-4.41366
-0.04,-4.449302
-0.04,-4.480865
-0.04,-4.51147
-0.04,-4.535041
0.04,-3.85209
0.04,-2.85158
0.04,-1.85153
0.04,-0.8513792
0.04,0.14867
0.04,0.711788
0.04,0.8401765
0.04,0.9220414
0.04,0.998868
0.04,1.08381
0.04,1.17243
0.04,1.26387
0.04,1.36367
0.04,1.47183
0.04,1.59873
0.04,1.73991
0.04,1.87956
0.04,1.98569
0.04,2.05912
0.04,2.112479
0.04,2.15295
0.04,2.18858
0.04,2.22611
0.04,2.25821
0.04,2.29544
0.04,2.330096
0.04,2.36708
0.04,2.40614
0.04,2.44858
0.04,2.49524
0.04,2.54564
0.04,2.60109
0.04,2.66214
0.04,2.72772
0.04,2.79831
0.04,2.871339
0.04,2.91781