File: charging_cycle_260.csv
control/mA,Ewe/V
-0.08,-5.458645
-0.08,-5.47595
-0.08,-5.492421
-0.08,-5.50792
-0.08,-5.522515
-0.08,-5.53683
-0.08,-5.547723
-0.08,-5.561844
-0.08,-5.57421
-0.08,-5.580583
0.08,-4.864922
0.08,-3.86262
0.08,-2.862288
0.08,-1.86212
0.08,-0.8621037
0.08,0.06321742
0.08,0.511935
0.08,0.7731771
0.08,0.926984
0.08,1.01957
0.08,1.09281
0.08,1.16088
0.08,1.22307
0.08,1.29721
0.08,1.38896
0.08,1.51664
0.08,1.67632
0.08,1.85895
0.08,2.01592
0.08,2.121963
0.08,2.21323
0.08,2.311185
0.08,2.42574
0.08,2.56672
0.08,2.73616
0.08,2.9054
0.08,3.07489
0.08,3.245723
0.08,3.417086
0.08,3.57324
0.08,3.71361
0.08,3.8399
0.08,3.95791
0.08,4.07561
0.08,4.19454
0.08,4.313143
0.08,4.427735
0.08,4.535342
0.08,4.63482
0.08,4.7198
0.08,4.796222
0.08,4.86274
0.08,4.921653
0.08,4.976134
0.08,5.025692
0.08,5.07199
0.08,5.115724
0.08,5.156313
0.08,5.19202
0.08,5.22093
0.08,5.244609
0.08,5.26276
0.08,5.277202
0.08,5.28789
0.08,5.296991
0.08,5.30472
0.08,5.30985
0.08,5.315654
0.08,5.320596
0.08,5.32481
0.08,5.328649
0.08,5.33241
0.08,5.3354
0.08,5.33863
0.08,5.340175