File: charging_cycle_108.csv
control/mA,Ewe/V
-0.02,-1.4324
-0.02,-1.46345
-0.02,-1.49683
-0.02,-1.5303
-0.02,-1.56285
-0.02,-1.5948
-0.02,-1.62907
-0.02,-1.66142
-0.02,-1.69311
-0.02,-1.70179
0.02,-1.028
0.02,-0.0279407
0.02,0.441901
0.02,0.4958288
0.02,0.5325631
0.02,0.5606719
0.02,0.584907
0.02,0.607291
0.02,0.629904
0.02,0.65307
0.02,0.6777635
0.02,0.703487
0.02,0.7296685
0.02,0.755678
0.02,0.779722
0.02,0.801496
0.02,0.8211892
0.02,0.8409971
0.02,0.8598508
0.02,0.8795442
0.02,0.9002871
0.02,0.9204957
0.02,0.942479
0.02,0.965932
0.02,0.990682
0.02,1.01694
0.02,1.04381
0.02,1.07308
0.02,1.10316
0.02,1.135
0.02,1.169697
0.02,1.20586
0.02,1.24492
0.02,1.2858
0.02,1.32747
0.02,1.37289
0.02,1.41995
0.02,1.46933
0.02,1.51929
0.02,1.57118
0.02,1.62108
0.02,1.67646
0.02,1.73117
0.02,1.78574
0.02,1.84042
0.02,1.88965
0.02,1.94694
0.02,2.00018
0.02,2.051796
0.02,2.09946
0.02,2.1449
0.02,2.18913
0.02,2.23077
0.02,2.27161
0.02,2.31071
0.02,2.35009
0.02,2.387096
0.02,2.42446
0.02,2.46215
0.02,2.49814
0.02,2.53306
0.02,2.56745