File: charging_cycle_66.csv
control/mA,Ewe/V
-0.01,-0.552652
-0.01,-0.5552093
-0.01,-0.559121
-0.01,-0.5625371
-0.01,-0.56477
-0.01,-0.5690061
-0.01,-0.572613
-0.01,-0.5762194
-0.01,-0.5787192
-0.01,-0.5816198
0.01,-0.307736
0.01,0.211057
0.01,0.259566
0.01,0.289487
0.01,0.3113943
0.01,0.329103
0.01,0.3444265
0.01,0.358166
0.01,0.369978
0.01,0.3811798
0.01,0.391103
0.01,0.400472
0.01,0.408964
0.01,0.417265
0.01,0.425414
0.01,0.43339
0.01,0.44068
0.01,0.447836
0.01,0.4546292
0.01,0.461098
0.01,0.467262
0.01,0.473368
0.01,0.479456
0.01,0.485753
0.01,0.4909627
0.01,0.496516
0.01,0.5019353
0.01,0.507488
0.01,0.5130796
0.01,0.5180602
0.01,0.523289
0.01,0.528747
0.01,0.5336126
0.01,0.538765
0.01,0.543478
0.01,0.548364
0.01,0.5524854
0.01,0.5569317
0.01,0.561607
0.01,0.566225
0.01,0.570251
0.01,0.5751748
0.01,0.579468
0.01,0.58422
0.01,0.5887426
0.01,0.5931125
0.01,0.5977306
0.01,0.6021387
0.01,0.606566
0.01,0.6104969
0.01,0.614676
0.01,0.6187025
0.01,0.6227099
0.01,0.626431
0.01,0.6306864
0.01,0.634541
0.01,0.6386058
0.01,0.642117
0.01,0.6466205
0.01,0.6504943
0.01,0.654292