File: charging_cycle_72.csv
control/mA,Ewe/V
-0.01,-0.571296
-0.01,-0.5753988
-0.01,-0.5794825
-0.01,-0.5825739
-0.01,-0.586066
-0.01,-0.589157
-0.01,-0.5930885
-0.01,-0.596371
-0.01,-0.5997484
-0.01,-0.602267
0.01,-0.322404
0.01,0.211477
0.01,0.260768
0.01,0.2905369
0.01,0.311356
0.01,0.328702
0.01,0.34269
0.01,0.356449
0.01,0.367688
0.01,0.378298
0.01,0.387992
0.01,0.3970185
0.01,0.405625
0.01,0.413487
0.01,0.420872
0.01,0.427723
0.01,0.4345733
0.01,0.4416148
0.01,0.448065
0.01,0.4544384
0.01,0.460755
0.01,0.4669185
0.01,0.472796
0.01,0.4781773
0.01,0.483826
0.01,0.4894552
0.01,0.495008
0.01,0.4998171
0.01,0.505065
0.01,0.5101409
0.01,0.515026
0.01,0.5203883
0.01,0.5251781
0.01,0.5298342
0.01,0.5345095
0.01,0.539013
0.01,0.543536
0.01,0.5480582
0.01,0.552505
0.01,0.5576568
0.01,0.5620077
0.01,0.566778
0.01,0.5709384
0.01,0.57569
0.01,0.5802699
0.01,0.584716
0.01,0.588895
0.01,0.593208
0.01,0.5975397
0.01,0.602062
0.01,0.606375
0.01,0.611012
0.01,0.6150004
0.01,0.6189315
0.01,0.6233014
0.01,0.627461
0.01,0.631736
0.01,0.6357815
0.01,0.639503
0.01,0.6435291
0.01,0.6476319