File: charging_cycle_37.csv
control/mA,Ewe/V
-0.01,-0.5269287
-0.01,-0.5287988
-0.01,-0.530707
-0.01,-0.532692
-0.01,-0.534314
-0.01,-0.536241
-0.01,-0.5381875
-0.01,-0.5400958
-0.01,-0.5420231
-0.01,-0.543683
0.01,-0.26317
0.01,0.255253
0.01,0.295594
0.01,0.321833
0.01,0.341621
0.01,0.3580325
0.01,0.371848
0.01,0.3837369
0.01,0.394061
0.01,0.4028387
0.01,0.4107962
0.01,0.4132388
0.01,0.418391
0.01,0.4244976
0.01,0.431825
0.01,0.4364434
0.01,0.4412904
0.01,0.44587
0.01,0.450202
0.01,0.454343
0.01,0.458369
0.01,0.462071
0.01,0.465754
0.01,0.469876
0.01,0.473597
0.01,0.476593
0.01,0.4799329
0.01,0.482948
0.01,0.4856768
0.01,0.488387
0.01,0.491173
0.01,0.494035
0.01,0.4966112
0.01,0.499416
0.01,0.502031
0.01,0.5046641
0.01,0.50703
0.01,0.509378
0.01,0.5119537
0.01,0.5141864
0.01,0.5163046
0.01,0.5186327
0.01,0.5205219
0.01,0.5227355
0.01,0.5247964
0.01,0.526781
0.01,0.528689
0.01,0.5303495
0.01,0.5323341
0.01,0.534338
0.01,0.5361124
0.01,0.537963
0.01,0.539643
0.01,0.541169
0.01,0.5428677
0.01,0.5445661
0.01,0.5461118
0.01,0.5478293
0.01,0.549146
0.01,0.5506344
0.01,0.5523137