File: charging_cycle_68.csv
control/mA,Ewe/V
-0.01,-0.5580335
-0.01,-0.561106
-0.01,-0.56517
-0.01,-0.568033
-0.01,-0.57162
-0.01,-0.574712
-0.01,-0.5779368
-0.01,-0.581429
-0.01,-0.584291
-0.01,-0.5875736
0.01,-0.311743
0.01,0.211534
0.01,0.260692
0.01,0.290003
0.01,0.312196
0.01,0.3295229
0.01,0.344026
0.01,0.356888
0.01,0.368681
0.01,0.3794242
0.01,0.3898243
0.01,0.3989649
0.01,0.407552
0.01,0.416025
0.01,0.423811
0.01,0.431272
0.01,0.438352
0.01,0.4454886
0.01,0.452397
0.01,0.459095
0.01,0.4653537
0.01,0.4715174
0.01,0.477681
0.01,0.483444
0.01,0.488749
0.01,0.4944358
0.01,0.499874
0.01,0.505294
0.01,0.5105416
0.01,0.515828
0.01,0.5209799
0.01,0.525655
0.01,0.530693
0.01,0.5358453
0.01,0.5405015
0.01,0.5452531
0.01,0.5499665
0.01,0.5544509
0.01,0.5591262
0.01,0.563859
0.01,0.568286
0.01,0.572465
0.01,0.5773502
0.01,0.5818347
0.01,0.586166
0.01,0.5907272
0.01,0.595116
0.01,0.5994098
0.01,0.60357
0.01,0.6078444
0.01,0.612253
0.01,0.6167179
0.01,0.6207252
0.01,0.624771
0.01,0.629007
0.01,0.633396
0.01,0.63727
0.01,0.64101
0.01,0.645151
0.01,0.6489295
0.01,0.6530132