File: charging_cycle_136.csv
control/mA,Ewe/V
-0.04,-2.794401
-0.04,-2.82278
-0.04,-2.84913
-0.04,-2.87506
-0.04,-2.89397
-0.04,-2.91798
-0.04,-2.94494
-0.04,-2.96689
-0.04,-2.99282
-0.04,-3.00301
0.04,-2.15923
0.04,-1.15915
0.04,-0.159134
0.04,0.1446434
0.04,0.341736
0.04,0.4743035
0.04,0.5652136
0.04,0.629484
0.04,0.6795191
0.04,0.724001
0.04,0.7695323
0.04,0.8152545
0.04,0.8602134
0.04,0.9003253
0.04,0.9374221
0.04,0.975664
0.04,1.01589
0.04,1.06161
0.04,1.11394
0.04,1.17057
0.04,1.23175
0.04,1.30322
0.04,1.38155
0.04,1.46678
0.04,1.55946
0.04,1.65734
0.04,1.76075
0.04,1.86148
0.04,1.94774
0.04,2.0217
0.04,2.08935
0.04,2.145473
0.04,2.19413
0.04,2.237392
0.04,2.2751
0.04,2.31399
0.04,2.349942
0.04,2.38603
0.04,2.41999
0.04,2.45717
0.04,2.4926
0.04,2.5302
0.04,2.56785
0.04,2.60819
0.04,2.64929
0.04,2.69072
0.04,2.73652
0.04,2.78075
0.04,2.82774
0.04,2.87344
0.04,2.91845
0.04,2.96296
0.04,3.006693
0.04,3.04946
0.04,3.0897
0.04,3.13088
0.04,3.16953
0.04,3.20863
0.04,3.24694
0.04,3.285625
0.04,3.32232
0.04,3.35993
0.04,3.36921