File: charging_cycle_23.csv
control/mA,Ewe/V
-0.01,-2.1085
-0.01,-2.1214
-0.01,-2.13461
-0.01,-2.14753
-0.01,-2.159093
-0.01,-2.17268
-0.01,-2.18487
-0.01,-2.196762
-0.01,-2.20875
-0.01,-2.2206
0.01,-0.918513
0.01,0.114709
0.01,1.11476
0.01,1.17285
0.01,1.20948
0.01,1.23923
0.01,1.26473
0.01,1.287132
0.01,1.30759
0.01,1.3257
0.01,1.34304
0.01,1.35879
0.01,1.37434
0.01,1.388633
0.01,1.40264
0.01,1.41525
0.01,1.42844
0.01,1.44084
0.01,1.45401
0.01,1.46632
0.01,1.47872
0.01,1.49107
0.01,1.50368
0.01,1.51609
0.01,1.529082
0.01,1.5416
0.01,1.55444
0.01,1.5674
0.01,1.5804
0.01,1.593009
0.01,1.60621
0.01,1.61902
0.01,1.6314
0.01,1.64404
0.01,1.65707
0.01,1.669588
0.01,1.68224
0.01,1.6955
0.01,1.70798
0.01,1.72088
0.01,1.73348
0.01,1.74592
0.01,1.75939
0.01,1.771795
0.01,1.78435
0.01,1.797404
0.01,1.8096
0.01,1.82233
0.01,1.83513
0.01,1.84753
0.01,1.86007
0.01,1.87232
0.01,1.88522
0.01,1.89665
0.01,1.909267
0.01,1.92096
0.01,1.93205
0.01,1.94446
0.01,1.9561
0.01,1.967412
0.01,1.979396
0.01,1.99083
0.01,2.00136