File: charging_cycle_220.csv
control/mA,Ewe/V
-0.08,-6.503219
-0.08,-6.553636
-0.08,-6.600713
-0.08,-6.644546
-0.08,-6.686986
-0.08,-6.72658
-0.08,-6.764958
-0.08,-6.80408
-0.08,-6.842968
-0.08,-6.871058
0.08,-5.728748
0.08,-4.697498
0.08,-3.694829
0.08,-2.693463
0.08,-1.69344
0.08,-0.6934125
0.08,0.306605
0.08,0.749839
0.08,1.0153
0.08,1.11146
0.08,1.17147
0.08,1.23603
0.08,1.3135
0.08,1.40888
0.08,1.52298
0.08,1.68077
0.08,1.86681
0.08,2.054811
0.08,2.219817
0.08,2.35263
0.08,2.48135
0.08,2.616814
0.08,2.77228
0.08,2.9441
0.08,3.12512
0.08,3.32459
0.08,3.53009
0.08,3.7184
0.08,3.90412
0.08,4.06893
0.08,4.223187
0.08,4.375429
0.08,4.530991
0.08,4.68096
0.08,4.818396
0.08,4.93566
0.08,5.03579
0.08,5.121392
0.08,5.19673
0.08,5.26442
0.08,5.327256
0.08,5.3842
0.08,5.43717
0.08,5.48398
0.08,5.52398
0.08,5.557852
0.08,5.586457
0.08,5.61052
0.08,5.63212
0.08,5.65176
0.08,5.667768
0.08,5.68363
0.08,5.69744
0.08,5.710857
0.08,5.723585
0.08,5.73544
0.08,5.745778
0.08,5.755472
0.08,5.765128
0.08,5.77377
0.08,5.782245
0.08,5.7899
0.08,5.7969
0.08,5.804572
0.08,5.81129
0.08,5.81591