File: charging_cycle_49.csv
control/mA,Ewe/V
-0.01,-0.499583
-0.01,-0.502045
-0.01,-0.5044683
-0.01,-0.5068537
-0.01,-0.5091245
-0.01,-0.511434
-0.01,-0.513762
-0.01,-0.5158989
-0.01,-0.518361
-0.01,-0.5204787
0.01,-0.2687
0.01,0.201382
0.01,0.2465703
0.01,0.275004
0.01,0.297197
0.01,0.314963
0.01,0.3302862
0.01,0.3438922
0.01,0.3559143
0.01,0.366372
0.01,0.376008
0.01,0.385111
0.01,0.393393
0.01,0.40095
0.01,0.408544
0.01,0.415548
0.01,0.422208
0.01,0.428772
0.01,0.4344397
0.01,0.440413
0.01,0.445889
0.01,0.451366
0.01,0.456671
0.01,0.461423
0.01,0.466212
0.01,0.470716
0.01,0.475105
0.01,0.479303
0.01,0.483272
0.01,0.487509
0.01,0.4914398
0.01,0.495638
0.01,0.4994736
0.01,0.5033283
0.01,0.5070113
0.01,0.5106752
0.01,0.5142055
0.01,0.51764
0.01,0.520541
0.01,0.524014
0.01,0.5269718
0.01,0.5300823
0.01,0.533021
0.01,0.5360743
0.01,0.5390321
0.01,0.5418373
0.01,0.5448905
0.01,0.547448
0.01,0.5503291
0.01,0.5525999
0.01,0.555539
0.01,0.5577713
0.01,0.5604429
0.01,0.562752
0.01,0.5647556
0.01,0.567179
0.01,0.5695263
0.01,0.5718544
0.01,0.5741443
0.01,0.5759953
0.01,0.5782662