File: charging_cycle_140.csv
control/mA,Ewe/V
-0.04,-2.438966
-0.04,-2.45542
-0.04,-2.47343
-0.04,-2.49146
-0.04,-2.50869
-0.04,-2.52432
-0.04,-2.54222
-0.04,-2.55984
-0.04,-2.57775
-0.04,-2.58814
0.04,-1.90281
0.04,-0.9027308
0.04,0.0295173
0.04,0.335801
0.04,0.509129
0.04,0.6210687
0.04,0.698564
0.04,0.765544
0.04,0.832582
0.04,0.8955546
0.04,0.9504747
0.04,0.996445
0.04,1.04217
0.04,1.0909
0.04,1.142256
0.04,1.20044
0.04,1.26099
0.04,1.334419
0.04,1.41508
0.04,1.50273
0.04,1.6003
0.04,1.70436
0.04,1.81235
0.04,1.91165
0.04,1.99478
0.04,2.0584
0.04,2.10956
0.04,2.15421
0.04,2.19631
0.04,2.23745
0.04,2.27727
0.04,2.31659
0.04,2.35908
0.04,2.40112
0.04,2.447989
0.04,2.49331
0.04,2.54107
0.04,2.588972
0.04,2.6404
0.04,2.69219
0.04,2.746042
0.04,2.801191
0.04,2.858668
0.04,2.916947
0.04,2.97427
0.04,3.02938
0.04,3.08258
0.04,3.133593
0.04,3.18269
0.04,3.23227
0.04,3.27889
0.04,3.32421
0.04,3.36947
0.04,3.412964
0.04,3.4551
0.04,3.49788
0.04,3.53759
0.04,3.576732
0.04,3.61423
0.04,3.64816
0.04,3.68281
0.04,3.7092