File: charging_cycle_25.csv
control/mA,Ewe/V
-0.01,-2.123389
-0.01,-2.136976
-0.01,-2.14988
-0.01,-2.163291
-0.01,-2.176
-0.01,-2.18945
-0.01,-2.20228
-0.01,-2.21421
-0.01,-2.22635
-0.01,-2.23846
0.01,-0.935426
0.01,0.0692918
0.01,1.069341
0.01,1.174105
0.01,1.20905
0.01,1.2395
0.01,1.265683
0.01,1.28879
0.01,1.3094
0.01,1.32843
0.01,1.34614
0.01,1.36241
0.01,1.37856
0.01,1.39365
0.01,1.40817
0.01,1.42235
0.01,1.43586
0.01,1.44943
0.01,1.46227
0.01,1.47542
0.01,1.48832
0.01,1.50153
0.01,1.51462
0.01,1.52763
0.01,1.5408
0.01,1.554233
0.01,1.56732
0.01,1.58049
0.01,1.59427
0.01,1.60807
0.01,1.62135
0.01,1.63497
0.01,1.64829
0.01,1.66142
0.01,1.67484
0.01,1.68798
0.01,1.70151
0.01,1.7146
0.01,1.72802
0.01,1.74121
0.01,1.75443
0.01,1.76546
0.01,1.77754
0.01,1.7904
0.01,1.80259
0.01,1.8158
0.01,1.82797
0.01,1.8408
0.01,1.853927
0.01,1.86696
0.01,1.879975
0.01,1.89236
0.01,1.90543
0.01,1.91772
0.01,1.92969
0.01,1.94291
0.01,1.95501
0.01,1.96713
0.01,1.97909
0.01,1.99222
0.01,2.00439
0.01,2.01687
0.01,2.028267