File: charging_cycle_32.csv
control/mA,Ewe/V
-0.01,-2.17272
-0.01,-2.187698
-0.01,-2.20207
-0.01,-2.21709
-0.01,-2.23049
-0.01,-2.243788
-0.01,-2.2573
-0.01,-2.270752
-0.01,-2.28426
-0.01,-2.297296
0.01,-0.994179
0.01,0.0462781
0.01,1.04671
0.01,1.17888
0.01,1.20389
0.01,1.23187
0.01,1.25683
0.01,1.2795
0.01,1.30104
0.01,1.32077
0.01,1.33944
0.01,1.35738
0.01,1.37444
0.01,1.390694
0.01,1.40667
0.01,1.422066
0.01,1.43731
0.01,1.45239
0.01,1.4668
0.01,1.481795
0.01,1.495878
0.01,1.510648
0.01,1.52527
0.01,1.54011
0.01,1.55475
0.01,1.56937
0.01,1.58454
0.01,1.5991
0.01,1.61431
0.01,1.629228
0.01,1.64362
0.01,1.65827
0.01,1.67287
0.01,1.68777
0.01,1.70233
0.01,1.71661
0.01,1.7314
0.01,1.7459
0.01,1.76111
0.01,1.77578
0.01,1.79126
0.01,1.80647
0.01,1.82154
0.01,1.83679
0.01,1.85227
0.01,1.867285
0.01,1.88268
0.01,1.89797
0.01,1.91362
0.01,1.92869
0.01,1.94392
0.01,1.958653
0.01,1.9727
0.01,1.987239
0.01,2.00205
0.01,2.01647
0.01,2.030385
0.01,2.043953
0.01,2.05767
0.01,2.071928
0.01,2.08525
0.01,2.09872
0.01,2.11166