File: charging_cycle_182.csv
control/mA,Ewe/V
-0.08,-5.050141
-0.08,-5.08111
-0.08,-5.110824
-0.08,-5.139868
-0.08,-5.16603
-0.08,-5.19282
-0.08,-5.21929
-0.08,-5.24358
-0.08,-5.265909
-0.08,-5.2727
0.08,-4.49581
0.08,-3.494346
0.08,-2.49422
0.08,-1.49414
0.08,-0.494055
0.08,0.5059618
0.08,0.960856
0.08,1.08589
0.08,1.19752
0.08,1.31997
0.08,1.44622
0.08,1.58868
0.08,1.75598
0.08,1.91224
0.08,2.01342
0.08,2.08061
0.08,2.129825
0.08,2.167437
0.08,2.20186
0.08,2.23684
0.08,2.27462
0.08,2.31716
0.08,2.366105
0.08,2.42305
0.08,2.48749
0.08,2.56285
0.08,2.65074
0.08,2.74568
0.08,2.848688
0.08,2.95513
0.08,3.06635
0.08,3.186681
0.08,3.31007
0.08,3.435348
0.08,3.5612
0.08,3.68835
0.08,3.826143
0.08,3.97163
0.08,4.11618
0.08,4.249445
0.08,4.36673
0.08,4.46653
0.08,4.543338
0.08,4.60717
0.08,4.66104
0.08,4.707888
0.08,4.752179
0.08,4.79263
0.08,4.83088
0.08,4.868946
0.08,4.90681
0.08,4.94656
0.08,4.98388
0.08,5.0226
0.08,5.059888
0.08,5.09567
0.08,5.12756
0.08,5.1616
0.08,5.19419
0.08,5.22514
0.08,5.255123
0.08,5.28333
0.08,5.31094
0.08,5.33935
0.08,5.34683