File: charging_cycle_186.csv
control/mA,Ewe/V
-0.08,-5.09063
-0.08,-5.122522
-0.08,-5.15246
-0.08,-5.17868
-0.08,-5.20736
-0.08,-5.23368
-0.08,-5.256883
-0.08,-5.27955
-0.08,-5.30079
-0.08,-5.30581
0.08,-4.465432
0.08,-3.46519
0.08,-2.46478
0.08,-1.46472
0.08,-0.464611
0.08,0.497985
0.08,0.9776103
0.08,1.09424
0.08,1.18971
0.08,1.3045
0.08,1.4276
0.08,1.566484
0.08,1.733744
0.08,1.90732
0.08,2.02981
0.08,2.11086
0.08,2.17267
0.08,2.22308
0.08,2.27287
0.08,2.32767
0.08,2.39021
0.08,2.461118
0.08,2.54472
0.08,2.63918
0.08,2.73976
0.08,2.85105
0.08,2.96899
0.08,3.09218
0.08,3.22166
0.08,3.35316
0.08,3.48433
0.08,3.61726
0.08,3.746797
0.08,3.87925
0.08,4.015024
0.08,4.150683
0.08,4.28334
0.08,4.40898
0.08,4.52454
0.08,4.62492
0.08,4.71092
0.08,4.78208
0.08,4.844177
0.08,4.89992
0.08,4.951937
0.08,5.001018
0.08,5.045862
0.08,5.08937
0.08,5.12939
0.08,5.172209
0.08,5.21196
0.08,5.25138
0.08,5.288308
0.08,5.324718
0.08,5.36099
0.08,5.39332
0.08,5.418605
0.08,5.44156
0.08,5.46099
0.08,5.47643
0.08,5.490604
0.08,5.50011
0.08,5.508485
0.08,5.51589
0.08,5.518102