File: charging_cycle_268.csv
control/mA,Ewe/V
-0.08,-5.41508
-0.08,-5.428265
-0.08,-5.43968
-0.08,-5.452729
-0.08,-5.46305
-0.08,-5.47271
-0.08,-5.48319
-0.08,-5.49229
-0.08,-5.500703
-0.08,-5.505913
0.08,-4.862598
0.08,-3.86154
0.08,-2.86099
0.08,-1.8609
0.08,-0.8608633
0.08,0.008335506
0.08,0.503252
0.08,0.768254
0.08,0.9356665
0.08,1.04692
0.08,1.12699
0.08,1.19258
0.08,1.26204
0.08,1.342949
0.08,1.44838
0.08,1.5866
0.08,1.76178
0.08,1.94051
0.08,2.06569
0.08,2.15385
0.08,2.23886
0.08,2.33781
0.08,2.464591
0.08,2.62851
0.08,2.80957
0.08,2.98353
0.08,3.152981
0.08,3.323428
0.08,3.487024
0.08,3.63175
0.08,3.75615
0.08,3.86738
0.08,3.97697
0.08,4.090744
0.08,4.20922
0.08,4.330966
0.08,4.4496
0.08,4.56122
0.08,4.660506
0.08,4.74657
0.08,4.81945
0.08,4.88562
0.08,4.94421
0.08,4.996686
0.08,5.043305
0.08,5.087386
0.08,5.128853
0.08,5.162286
0.08,5.19144
0.08,5.214782
0.08,5.233846
0.08,5.24829
0.08,5.259722
0.08,5.268023
0.08,5.274397
0.08,5.28006
0.08,5.28453
0.08,5.28842
0.08,5.29232
0.08,5.29531
0.08,5.29892
0.08,5.30195
0.08,5.304891
0.08,5.307887
0.08,5.308765