File: charging_cycle_3.csv
control/mA,Ewe/V
-0.01,-1.486904
-0.01,-1.49545
-0.01,-1.50372
-0.01,-1.51162
-0.01,-1.51976
-0.01,-1.52738
-0.01,-1.5352
-0.01,-1.5428
-0.01,-1.54925
-0.01,-1.55211
0.01,-0.391738
0.01,0.6083215
0.01,0.8401193
0.01,0.890288
0.01,0.922652
0.01,0.9469825
0.01,0.9671339
0.01,0.9848236
0.01,0.9975136
0.01,1.01066
0.01,1.02331
0.01,1.035202
0.01,1.04667
0.01,1.05762
0.01,1.06837
0.01,1.0789
0.01,1.08936
0.01,1.09976
0.01,1.10875
0.01,1.11781
0.01,1.12489
0.01,1.13241
0.01,1.14042
0.01,1.14861
0.01,1.15649
0.01,1.16456
0.01,1.17096
0.01,1.17809
0.01,1.18575
0.01,1.19334
0.01,1.200382
0.01,1.20729
0.01,1.215152
0.01,1.2228
0.01,1.22986
0.01,1.23757
0.01,1.24441
0.01,1.25179
0.01,1.25847
0.01,1.26524
0.01,1.27255
0.01,1.27946
0.01,1.28625
0.01,1.293334
0.01,1.30015
0.01,1.30646
0.01,1.31324
0.01,1.32003
0.01,1.32633
0.01,1.33276
0.01,1.33944
0.01,1.3461
0.01,1.35278
0.01,1.3593
0.01,1.3657
0.01,1.37216
0.01,1.37902
0.01,1.38527
0.01,1.39243
0.01,1.39865
0.01,1.40504
0.01,1.41161