File: charging_cycle_147.csv
control/mA,Ewe/V
-0.04,-2.59205
-0.04,-2.61235
-0.04,-2.631797
-0.04,-2.65065
-0.04,-2.66991
-0.04,-2.68821
-0.04,-2.70563
-0.04,-2.724062
-0.04,-2.741866
-0.04,-2.74435
0.04,-2.11217
0.04,-1.11216
0.04,-0.112096
0.04,0.3687
0.04,0.570347
0.04,0.6920946
0.04,0.7866495
0.04,0.8688197
0.04,0.9455704
0.04,1.01326
0.04,1.07188
0.04,1.12947
0.04,1.19439
0.04,1.2662
0.04,1.3472
0.04,1.43579
0.04,1.53456
0.04,1.637739
0.04,1.74443
0.04,1.84759
0.04,1.93739
0.04,2.00924
0.04,2.06422
0.04,2.10383
0.04,2.132802
0.04,2.16452
0.04,2.191367
0.04,2.21797
0.04,2.247525
0.04,2.2779
0.04,2.31012
0.04,2.344217
0.04,2.387592
0.04,2.4333
0.04,2.48039
0.04,2.53461
0.04,2.59256
0.04,2.65485
0.04,2.71765
0.04,2.79178
0.04,2.863954
0.04,2.935438
0.04,3.00667
0.04,3.07898
0.04,3.14718
0.04,3.21792
0.04,3.29015
0.04,3.36236
0.04,3.433955
0.04,3.49981
0.04,3.56927
0.04,3.63528
0.04,3.69745
0.04,3.7558
0.04,3.81057
0.04,3.85908
0.04,3.90629
0.04,3.94965
0.04,3.9922
0.04,4.031855
0.04,4.06935
0.04,4.1063
0.04,4.11137