File: charging_cycle_71.csv
control/mA,Ewe/V
-0.01,-0.5676894
-0.01,-0.5718876
-0.01,-0.5752271
-0.01,-0.5779559
-0.01,-0.5812572
-0.01,-0.585589
-0.01,-0.5895391
-0.01,-0.592363
-0.01,-0.595989
-0.01,-0.5991568
0.01,-0.319599
0.01,0.214359
0.01,0.264336
0.01,0.2937237
0.01,0.315535
0.01,0.3330532
0.01,0.348453
0.01,0.361391
0.01,0.3736994
0.01,0.385359
0.01,0.3951293
0.01,0.4044035
0.01,0.4131243
0.01,0.42175
0.01,0.429898
0.01,0.4375311
0.01,0.445088
0.01,0.45232
0.01,0.459228
0.01,0.46585
0.01,0.472281
0.01,0.479017
0.01,0.485295
0.01,0.4909627
0.01,0.496917
0.01,0.5028322
0.01,0.508366
0.01,0.513709
0.01,0.518919
0.01,0.524319
0.01,0.529815
0.01,0.53491
0.01,0.5402534
0.01,0.545577
0.01,0.5504436
0.01,0.555081
0.01,0.560462
0.01,0.5652136
0.01,0.5704041
0.01,0.5746595
0.01,0.57964
0.01,0.584831
0.01,0.589792
0.01,0.5942384
0.01,0.59067
0.01,0.591605
0.01,0.593857
0.01,0.5963375
0.01,0.5993526
0.01,0.603341
0.01,0.606909
0.01,0.610802
0.01,0.6145043
0.01,0.6182063
0.01,0.622385
0.01,0.626126
0.01,0.629885
0.01,0.6341022
0.01,0.637289
0.01,0.641239
0.01,0.6449412