File: charging_cycle_8.csv
control/mA,Ewe/V
-0.01,-1.837072
-0.01,-1.8478
-0.01,-1.857605
-0.01,-1.86161
-0.01,-1.86932
-0.01,-1.88102
-0.01,-1.89085
-0.01,-1.89917
-0.01,-1.90873
-0.01,-1.91896
0.01,-0.664103
0.01,0.345247
0.01,0.994289
0.01,1.03623
0.01,1.06459
0.01,1.08745
0.01,1.1063
0.01,1.123326
0.01,1.13874
0.01,1.15306
0.01,1.16605
0.01,1.1784
0.01,1.19006
0.01,1.2017
0.01,1.21221
0.01,1.22317
0.01,1.23364
0.01,1.24339
0.01,1.25404
0.01,1.26349
0.01,1.27353
0.01,1.28343
0.01,1.29263
0.01,1.30158
0.01,1.31066
0.01,1.3203
0.01,1.32976
0.01,1.339247
0.01,1.34839
0.01,1.35778
0.01,1.36646
0.01,1.37611
0.01,1.38489
0.01,1.394
0.01,1.40298
0.01,1.41189
0.01,1.42155
0.01,1.42981
0.01,1.43859
0.01,1.44735
0.01,1.456434
0.01,1.46515
0.01,1.47378
0.01,1.48284
0.01,1.49137
0.01,1.50015
0.01,1.50847
0.01,1.51725
0.01,1.52601
0.01,1.534425
0.01,1.54303
0.01,1.55133
0.01,1.55965
0.01,1.56826
0.01,1.57635
0.01,1.58461
0.01,1.59257
0.01,1.60045
0.01,1.60831
0.01,1.61703
0.01,1.624629
0.01,1.6328