File: charging_cycle_20.csv
control/mA,Ewe/V
-0.01,-2.07507
-0.01,-2.08734
-0.01,-2.098887
-0.01,-2.11192
-0.01,-2.124057
-0.01,-2.13625
-0.01,-2.14865
-0.01,-2.160944
-0.01,-2.171344
-0.01,-2.18308
0.01,-0.887013
0.01,0.118697
0.01,1.11877
0.01,1.16903
0.01,1.20628
0.01,1.23511
0.01,1.25958
0.01,1.28049
0.01,1.2995
0.01,1.31692
0.01,1.33295
0.01,1.34736
0.01,1.361841
0.01,1.37533
0.01,1.38833
0.01,1.40043
0.01,1.41161
0.01,1.42403
0.01,1.43563
0.01,1.44684
0.01,1.45813
0.01,1.469601
0.01,1.481127
0.01,1.49296
0.01,1.50424
0.01,1.51653
0.01,1.52809
0.01,1.54015
0.01,1.551962
0.01,1.56425
0.01,1.57645
0.01,1.58835
0.01,1.60045
0.01,1.61234
0.01,1.624629
0.01,1.63635
0.01,1.648139
0.01,1.65987
0.01,1.6719
0.01,1.68392
0.01,1.69577
0.01,1.7076
0.01,1.71932
0.01,1.73126
0.01,1.74313
0.01,1.75491
0.01,1.76706
0.01,1.7783
0.01,1.79011
0.01,1.80227
0.01,1.8145
0.01,1.82528
0.01,1.8371
0.01,1.84879
0.01,1.86011
0.01,1.87124
0.01,1.88303
0.01,1.89394
0.01,1.90516
0.01,1.91638
0.01,1.9281
0.01,1.93883
0.01,1.94634