File: charging_cycle_60.csv
control/mA,Ewe/V
-0.01,-0.5350961
-0.01,-0.538302
-0.01,-0.541355
-0.01,-0.544294
-0.01,-0.547595
-0.01,-0.550439
-0.01,-0.5534346
-0.01,-0.556392
-0.01,-0.5589686
-0.01,-0.561564
0.01,-0.296434
0.01,0.202623
0.01,0.249814
0.01,0.278896
0.01,0.300002
0.01,0.3172527
0.01,0.331889
0.01,0.345228
0.01,0.357059
0.01,0.367631
0.01,0.377879
0.01,0.3871527
0.01,0.395969
0.01,0.4039455
0.01,0.411769
0.01,0.4190018
0.01,0.425776
0.01,0.4327795
0.01,0.4391913
0.01,0.4460229
0.01,0.45169
0.01,0.457873
0.01,0.4633691
0.01,0.469037
0.01,0.474361
0.01,0.479799
0.01,0.48478
0.01,0.489932
0.01,0.4947602
0.01,0.4994927
0.01,0.504588
0.01,0.509244
0.01,0.513786
0.01,0.5175259
0.01,0.5218386
0.01,0.5263421
0.01,0.530941
0.01,0.534872
0.01,0.5390894
0.01,0.542734
0.01,0.5467606
0.01,0.550482
0.01,0.5549662
0.01,0.5590117
0.01,0.562981
0.01,0.5668547
0.01,0.570786
0.01,0.5747168
0.01,0.5784379
0.01,0.581739
0.01,0.585384
0.01,0.5887044
0.01,0.5928454
0.01,0.596185
0.01,0.599791
0.01,0.603055
0.01,0.6067376
0.01,0.61002
0.01,0.612959
0.01,0.616527
0.01,0.6194276