File: charging_cycle_210.csv
control/mA,Ewe/V
-0.08,-6.16156
-0.08,-6.19371
-0.08,-6.227016
-0.08,-6.25577
-0.08,-6.28331
-0.08,-6.3139
-0.08,-6.34361
-0.08,-6.37275
-0.08,-6.39992
-0.08,-6.41782
0.08,-5.12013
0.08,-4.11965
0.08,-3.1166
0.08,-2.11634
0.08,-1.11634
0.08,-0.116198
0.08,0.735584
0.08,1.08518
0.08,1.16857
0.08,1.21248
0.08,1.26694
0.08,1.342014
0.08,1.4381
0.08,1.5569
0.08,1.71928
0.08,1.91507
0.08,2.11717
0.08,2.29224
0.08,2.43652
0.08,2.56279
0.08,2.69536
0.08,2.840635
0.08,3.01452
0.08,3.20849
0.08,3.4068
0.08,3.612741
0.08,3.80914
0.08,3.99035
0.08,4.153183
0.08,4.309021
0.08,4.46403
0.08,4.61894
0.08,4.77285
0.08,4.920527
0.08,5.046492
0.08,5.161618
0.08,5.258
0.08,5.33716
0.08,5.409846
0.08,5.472571
0.08,5.52644
0.08,5.57396
0.08,5.61521
0.08,5.65056
0.08,5.681126
0.08,5.70794
0.08,5.73128
0.08,5.75164
0.08,5.769937
0.08,5.78412
0.08,5.793428
0.08,5.80564
0.08,5.816251
0.08,5.82663
0.08,5.835448
0.08,5.84356
0.08,5.85184
0.08,5.85909
0.08,5.8664
0.08,5.872068
0.08,5.87911
0.08,5.884643
0.08,5.889834
0.08,5.89539
0.08,5.89968
0.08,5.90239