File: charging_cycle_164.csv
control/mA,Ewe/V
-0.04,-3.66408
-0.04,-3.74087
-0.04,-3.81903
-0.04,-3.89259
-0.04,-3.95719
-0.04,-4.01329
-0.04,-4.06157
-0.04,-4.10578
-0.04,-4.144599
-0.04,-4.176219
0.04,-3.50181
0.04,-2.50157
0.04,-1.50157
0.04,-0.5015548
0.04,0.498539
0.04,0.7822414
0.04,0.880804
0.04,0.9613518
0.04,1.04284
0.04,1.1255
0.04,1.20557
0.04,1.28778
0.04,1.38583
0.04,1.49139
0.04,1.60932
0.04,1.73947
0.04,1.86877
0.04,1.97533
0.04,2.0534
0.04,2.11095
0.04,2.15645
0.04,2.19841
0.04,2.23585
0.04,2.2771
0.04,2.31609
0.04,2.35658
0.04,2.3969
0.04,2.44076
0.04,2.488635
0.04,2.54155
0.04,2.59867
0.04,2.66109
0.04,2.73137
0.04,2.804454
0.04,2.88588
0.04,2.97076
0.04,3.05806
0.04,3.151111
0.04,3.243433
0.04,3.34488
0.04,3.44449
0.04,3.54691
0.04,3.65598
0.04,3.77359
0.04,3.90066
0.04,4.02666
0.04,4.143031
0.04,4.24107
0.04,4.32112
0.04,4.38734
0.04,4.44237
0.04,4.488876
0.04,4.530953
0.04,4.57023
0.04,4.606864
0.04,4.64177
0.04,4.6755
0.04,4.70825
0.04,4.735863
0.04,4.76672
0.04,4.796432
0.04,4.823491
0.04,4.84706
0.04,4.858126