File: charging_cycle_1.csv
control/mA,Ewe/V
-0.01,-0.9531031
-0.01,-0.9584081
-0.01,-0.9635986
-0.01,-0.9689609
-0.01,-0.974399
-0.01,-0.979762
-0.01,-0.9849713
-0.01,-0.9903144
-0.01,-0.9956385
-0.01,-1.00133
0.01,-0.13877
0.01,0.5963375
0.01,0.641602
0.01,0.670016
0.01,0.6895948
0.01,0.7060822
0.01,0.719994
0.01,0.7321111
0.01,0.742931
0.01,0.750717
0.01,0.7585979
0.01,0.7668607
0.01,0.774704
0.01,0.7822986
0.01,0.789607
0.01,0.797107
0.01,0.8043392
0.01,0.8116479
0.01,0.8190138
0.01,0.8257309
0.01,0.8327152
0.01,0.838898
0.01,0.845462
0.01,0.85155
0.01,0.857351
0.01,0.863267
0.01,0.8681709
0.01,0.8739529
0.01,0.880155
0.01,0.886452
0.01,0.8925968
0.01,0.898722
0.01,0.904962
0.01,0.9110116
0.01,0.917252
0.01,0.923797
0.01,0.929884
0.01,0.9361817
0.01,0.942517
0.01,0.949158
0.01,0.9554743
0.01,0.9621342
0.01,0.9685078
0.01,0.9749578
0.01,0.9815032
0.01,0.987934
0.01,0.9943649
0.01,1.00091
0.01,1.007532
0.01,1.01381
0.01,1.02018
0.01,1.02661
0.01,1.03337
0.01,1.0399
0.01,1.04673
0.01,1.053178
0.01,1.05997
0.01,1.06686
0.01,1.07323
0.01,1.0797
0.01,1.08625