File: charging_cycle_254.csv
control/mA,Ewe/V
-0.08,-5.413
-0.08,-5.44405
-0.08,-5.47204
-0.08,-5.49671
-0.08,-5.519538
-0.08,-5.54141
-0.08,-5.560222
-0.08,-5.578828
-0.08,-5.595334
-0.08,-5.599418
0.08,-4.804566
0.08,-3.80156
0.08,-2.8009
0.08,-1.8009
0.08,-0.8008482
0.08,0.11829
0.08,0.5149306
0.08,0.754133
0.08,0.875098
0.08,0.9553598
0.08,1.01705
0.08,1.07644
0.08,1.14447
0.08,1.21634
0.08,1.30427
0.08,1.41397
0.08,1.56011
0.08,1.72735
0.08,1.89436
0.08,2.02886
0.08,2.13687
0.08,2.23527
0.08,2.339809
0.08,2.45392
0.08,2.58277
0.08,2.725051
0.08,2.88161
0.08,3.04327
0.08,3.20632
0.08,3.36898
0.08,3.52588
0.08,3.6707
0.08,3.80431
0.08,3.92833
0.08,4.045976
0.08,4.16173
0.08,4.273203
0.08,4.38016
0.08,4.48214
0.08,4.575874
0.08,4.66343
0.08,4.74254
0.08,4.8141
0.08,4.879232
0.08,4.93812
0.08,4.99312
0.08,5.04434
0.08,5.092214
0.08,5.138528
0.08,5.180529
0.08,5.21971
0.08,5.25255
0.08,5.282889
0.08,5.308727
0.08,5.330691
0.08,5.349621
0.08,5.36618
0.08,5.37851
0.08,5.388874
0.08,5.39889
0.08,5.40502
0.08,5.413243
0.08,5.41973
0.08,5.424673
0.08,5.426009