File: charging_cycle_166.csv
control/mA,Ewe/V
-0.04,-3.7572
-0.04,-3.841527
-0.04,-3.9266
-0.04,-4.00318
-0.04,-4.068592
-0.04,-4.123169
-0.04,-4.166582
-0.04,-4.20876
-0.04,-4.24546
-0.04,-4.27447
0.04,-3.60169
0.04,-2.601618
0.04,-1.60146
0.04,-0.6014528
0.04,0.398602
0.04,0.7825467
0.04,0.883113
0.04,0.9612564
0.04,1.04276
0.04,1.12642
0.04,1.20704
0.04,1.29049
0.04,1.383767
0.04,1.48922
0.04,1.60705
0.04,1.73964
0.04,1.87078
0.04,1.9755
0.04,2.05218
0.04,2.10723
0.04,2.150129
0.04,2.19097
0.04,2.230026
0.04,2.2684
0.04,2.30647
0.04,2.344389
0.04,2.385016
0.04,2.427685
0.04,2.47282
0.04,2.52239
0.04,2.5771
0.04,2.63708
0.04,2.704289
0.04,2.77608
0.04,2.85199
0.04,2.93437
0.04,3.01957
0.04,3.10982
0.04,3.20271
0.04,3.30026
0.04,3.39835
0.04,3.5017
0.04,3.603047
0.04,3.7122
0.04,3.828872
0.04,3.95774
0.04,4.083092
0.04,4.194639
0.04,4.28963
0.04,4.36673
0.04,4.42978
0.04,4.48514
0.04,4.52666
0.04,4.57328
0.04,4.61335
0.04,4.64959
0.04,4.684779
0.04,4.717582
0.04,4.749107
0.04,4.780116
0.04,4.81013
0.04,4.839578
0.04,4.866618
0.04,4.881961