File: charging_cycle_92.csv
control/mA,Ewe/V
-0.01,-0.6389824
-0.01,-0.6435623
-0.01,-0.646234
-0.01,-0.6519778
-0.01,-0.656863
-0.01,-0.6612138
-0.01,-0.665603
-0.01,-0.670564
-0.01,-0.6759457
-0.01,-0.6786745
0.01,-0.374825
0.01,0.215084
0.01,0.266111
0.01,0.2961663
0.01,0.317673
0.01,0.334236
0.01,0.349102
0.01,0.3625169
0.01,0.3751497
0.01,0.3863894
0.01,0.397247
0.01,0.408335
0.01,0.4184293
0.01,0.427837
0.01,0.4366342
0.01,0.4456031
0.01,0.4539613
0.01,0.4617089
0.01,0.470277
0.01,0.4777193
0.01,0.485524
0.01,0.4928519
0.01,0.499893
0.01,0.506859
0.01,0.513728
0.01,0.519778
0.01,0.5268955
0.01,0.5330401
0.01,0.5393565
0.01,0.5460164
0.01,0.55239
0.01,0.558611
0.01,0.5648701
0.01,0.5711674
0.01,0.5768731
0.01,0.5824262
0.01,0.589601
0.01,0.5954406
0.01,0.601604
0.01,0.607673
0.01,0.614352
0.01,0.6197329
0.01,0.6261447
0.01,0.631755
0.01,0.6381859
0.01,0.6442924
0.01,0.6496546
0.01,0.6559138
0.01,0.66223
0.01,0.66786
0.01,0.674042
0.01,0.680206
0.01,0.687114
0.01,0.694136
0.01,0.700472
0.01,0.7075898
0.01,0.7137535
0.01,0.7200699
0.01,0.7255848
0.01,0.7329316
0.01,0.738885