File: charging_cycle_88.csv
control/mA,Ewe/V
-0.01,-0.6212355
-0.01,-0.624861
-0.01,-0.629403
-0.01,-0.632952
-0.01,-0.6378184
-0.01,-0.6413105
-0.01,-0.6446691
-0.01,-0.6482376
-0.01,-0.6534662
-0.01,-0.6575881
0.01,-0.359516
0.01,0.212508
0.01,0.2638211
0.01,0.292579
0.01,0.314448
0.01,0.332233
0.01,0.3472889
0.01,0.360437
0.01,0.372879
0.01,0.3839468
0.01,0.394709
0.01,0.405205
0.01,0.415433
0.01,0.424555
0.01,0.4333329
0.01,0.441787
0.01,0.4500303
0.01,0.457778
0.01,0.4649339
0.01,0.4723189
0.01,0.479437
0.01,0.486822
0.01,0.4940923
0.01,0.5005423
0.01,0.5071831
0.01,0.5138238
0.01,0.5199112
0.01,0.5259795
0.01,0.531952
0.01,0.538078
0.01,0.5438982
0.01,0.5501573
0.01,0.5557295
0.01,0.5622176
0.01,0.567923
0.01,0.5739153
0.01,0.579716
0.01,0.585041
0.01,0.590784
0.01,0.5978451
0.01,0.6029783
0.01,0.607997
0.01,0.614352
0.01,0.6203054
0.01,0.6254959
0.01,0.63124
0.01,0.6368501
0.01,0.6427849
0.01,0.6486814
0.01,0.654234
0.01,0.6600738
0.01,0.666123
0.01,0.6716761
0.01,0.677286
0.01,0.682649
0.01,0.6883735
0.01,0.6937548
0.01,0.700014
0.01,0.7059296
0.01,0.7124368
0.01,0.7183143