File: charging_cycle_139.csv
control/mA,Ewe/V
-0.04,-2.43954
-0.04,-2.4558
-0.04,-2.47339
-0.04,-2.48997
-0.04,-2.5061
-0.04,-2.52461
-0.04,-2.54148
-0.04,-2.55861
-0.04,-2.574129
-0.04,-2.58375
0.04,-1.88574
0.04,-0.885652
0.04,0.0212163
0.04,0.31378
0.04,0.488768
0.04,0.604581
0.04,0.6840799
0.04,0.7494764
0.04,0.8118196
0.04,0.872713
0.04,0.9247321
0.04,0.9715611
0.04,1.015127
0.04,1.06157
0.04,1.10875
0.04,1.16571
0.04,1.22586
0.04,1.29664
0.04,1.36905
0.04,1.45384
0.04,1.54813
0.04,1.6461
0.04,1.75485
0.04,1.8594
0.04,1.95022
0.04,2.02373
0.04,2.08187
0.04,2.13082
0.04,2.174364
0.04,2.216859
0.04,2.25714
0.04,2.29802
0.04,2.339122
0.04,2.3808
0.04,2.423563
0.04,2.46799
0.04,2.51335
0.04,2.560119
0.04,2.60748
0.04,2.65597
0.04,2.70553
0.04,2.75532
0.04,2.807603
0.04,2.86029
0.04,2.91158
0.04,2.96488
0.04,3.01528
0.04,3.06598
0.04,3.114434
0.04,3.160633
0.04,3.20695
0.04,3.25143
0.04,3.29305
0.04,3.33535
0.04,3.37703
0.04,3.41672
0.04,3.45731
0.04,3.495077
0.04,3.53406
0.04,3.56988
0.04,3.59908
0.04,3.62482