File: charging_cycle_149.csv
control/mA,Ewe/V
-0.04,-2.61813
-0.04,-2.639602
-0.04,-2.66162
-0.04,-2.68282
-0.04,-2.70319
-0.04,-2.72345
-0.04,-2.74353
-0.04,-2.76265
-0.04,-2.782188
-0.04,-2.787474
0.04,-2.16019
0.04,-1.16018
0.04,-0.160146
0.04,0.368776
0.04,0.5830941
0.04,0.705643
0.04,0.7992632
0.04,0.8828455
0.04,0.9621342
0.04,1.03274
0.04,1.09548
0.04,1.16006
0.04,1.23124
0.04,1.31047
0.04,1.39867
0.04,1.49454
0.04,1.59503
0.04,1.70613
0.04,1.81546
0.04,1.91243
0.04,1.99323
0.04,2.05557
0.04,2.101201
0.04,2.137649
0.04,2.16765
0.04,2.19633
0.04,2.223576
0.04,2.2472
0.04,2.278706
0.04,2.310937
0.04,2.34637
0.04,2.38566
0.04,2.431139
0.04,2.48062
0.04,2.53485
0.04,2.5939
0.04,2.65979
0.04,2.73209
0.04,2.808519
0.04,2.8872
0.04,2.96509
0.04,3.04274
0.04,3.119548
0.04,3.19702
0.04,3.27845
0.04,3.36062
0.04,3.4447
0.04,3.527651
0.04,3.60868
0.04,3.68207
0.04,3.756911
0.04,3.82834
0.04,3.89173
0.04,3.94925
0.04,3.99949
0.04,4.04586
0.04,4.087271
0.04,4.12582
0.04,4.16482
0.04,4.19983
0.04,4.235839
0.04,4.269825
0.04,4.260341