File: charging_cycle_244.csv
control/mA,Ewe/V
-0.08,-6.39853
-0.08,-6.45282
-0.08,-6.50862
-0.08,-6.565906
-0.08,-6.625807
-0.08,-6.68615
-0.08,-6.74315
-0.08,-6.79139
-0.08,-6.837396
-0.08,-6.861
0.08,-5.77997
0.08,-4.73158
0.08,-3.722995
0.08,-2.72256
0.08,-1.72252
0.08,-0.7224182
0.08,0.1627529
0.08,0.550482
0.08,0.7740549
0.08,0.88691
0.08,0.974366
0.08,1.06783
0.08,1.17212
0.08,1.27681
0.08,1.39493
0.08,1.52923
0.08,1.70983
0.08,1.92831
0.08,2.137191
0.08,2.29579
0.08,2.43589
0.08,2.58603
0.08,2.75799
0.08,2.9521
0.08,3.14615
0.08,3.34669
0.08,3.54841
0.08,3.73991
0.08,3.92215
0.08,4.09267
0.08,4.262173
0.08,4.433364
0.08,4.59614
0.08,4.737676
0.08,4.856352
0.08,4.955792
0.08,5.041607
0.08,5.11737
0.08,5.186483
0.08,5.25054
0.08,5.31014
0.08,5.365383
0.08,5.41796
0.08,5.4662
0.08,5.508828
0.08,5.546116
0.08,5.578709
0.08,5.60781
0.08,5.63487
0.08,5.660269
0.08,5.682901
0.08,5.702823
0.08,5.72038
0.08,5.73629
0.08,5.74977
0.08,5.762686
0.08,5.77383
0.08,5.784402
0.08,5.79339
0.08,5.79931
0.08,5.806919
0.08,5.81408
0.08,5.81959
0.08,5.82421
0.08,5.82633
0.08,5.82976