File: charging_cycle_90.csv
control/mA,Ewe/V
-0.01,-0.6272275
-0.01,-0.631368
-0.01,-0.6356048
-0.01,-0.640509
-0.01,-0.6432
-0.01,-0.650489
-0.01,-0.6551455
-0.01,-0.65963
-0.01,-0.664801
-0.01,-0.668694
0.01,-0.368012
0.01,0.214301
0.01,0.265615
0.01,0.294792
0.01,0.3168138
0.01,0.334122
0.01,0.349388
0.01,0.3633375
0.01,0.376085
0.01,0.38763
0.01,0.397915
0.01,0.4081437
0.01,0.418391
0.01,0.4279134
0.01,0.4366342
0.01,0.4445917
0.01,0.4533316
0.01,0.4613845
0.01,0.468407
0.01,0.4760591
0.01,0.483062
0.01,0.4899895
0.01,0.497451
0.01,0.5046641
0.01,0.5114
0.01,0.5174305
0.01,0.524281
0.01,0.530598
0.01,0.5367613
0.01,0.5430586
0.01,0.548707
0.01,0.5548517
0.01,0.5605574
0.01,0.5668547
0.01,0.5728467
0.01,0.5788005
0.01,0.584602
0.01,0.5908417
0.01,0.5967192
0.01,0.602234
0.01,0.6083215
0.01,0.6134929
0.01,0.6199619
0.01,0.626126
0.01,0.631736
0.01,0.6370219
0.01,0.643014
0.01,0.6491585
0.01,0.654597
0.01,0.661123
0.01,0.666867
0.01,0.6732409
0.01,0.6795191
0.01,0.68532
0.01,0.691847
0.01,0.697381
0.01,0.7038114
0.01,0.7100324
0.01,0.716139
0.01,0.7224934
0.01,0.7285045