File: charging_cycle_191.csv
control/mA,Ewe/V
-0.08,-5.21748
-0.08,-5.249613
-0.08,-5.279916
-0.08,-5.309189
-0.08,-5.335714
-0.08,-5.357392
-0.08,-5.37563
-0.08,-5.39172
-0.08,-5.406
-0.08,-5.41596
0.08,-4.569072
0.08,-3.56804
0.08,-2.567708
0.08,-1.56767
0.08,-0.567657
0.08,0.432436
0.08,0.933014
0.08,1.05272
0.08,1.13144
0.08,1.22422
0.08,1.32877
0.08,1.45334
0.08,1.604993
0.08,1.79036
0.08,1.96108
0.08,2.073512
0.08,2.152839
0.08,2.21631
0.08,2.2763
0.08,2.33653
0.08,2.408087
0.08,2.4914
0.08,2.59294
0.08,2.71225
0.08,2.843173
0.08,2.9766
0.08,3.11356
0.08,3.256543
0.08,3.40848
0.08,3.55799
0.08,3.70052
0.08,3.83862
0.08,3.97394
0.08,4.11317
0.08,4.256028
0.08,4.3985
0.08,4.53288
0.08,4.6549
0.08,4.766701
0.08,4.86316
0.08,4.942701
0.08,5.014414
0.08,5.07632
0.08,5.131658
0.08,5.18486
0.08,5.23335
0.08,5.279511
0.08,5.32247
0.08,5.35947
0.08,5.39021
0.08,5.4095
0.08,5.42824
0.08,5.442382
0.08,5.453355
0.08,5.46391
0.08,5.472037
0.08,5.479822
0.08,5.486387
0.08,5.49213
0.08,5.49797
0.08,5.502779
0.08,5.50747
0.08,5.51165
0.08,5.51545
0.08,5.517167