File: charging_cycle_203.csv
control/mA,Ewe/V
-0.08,-5.69806
-0.08,-5.71838
-0.08,-5.7384
-0.08,-5.756068
-0.08,-5.77347
-0.08,-5.789959
-0.08,-5.805378
-0.08,-5.82101
-0.08,-5.83622
-0.08,-5.842761
0.08,-4.86661
0.08,-3.86113
0.08,-2.86065
0.08,-1.8606
0.08,-0.860558
0.08,0.139472
0.08,0.7644181
0.08,0.995663
0.08,1.08224
0.08,1.15605
0.08,1.23528
0.08,1.32745
0.08,1.43264
0.08,1.56593
0.08,1.73752
0.08,1.94123
0.08,2.12021
0.08,2.2468
0.08,2.348301
0.08,2.44482
0.08,2.54791
0.08,2.66397
0.08,2.80085
0.08,2.96328
0.08,3.14277
0.08,3.329935
0.08,3.52174
0.08,3.71806
0.08,3.89776
0.08,4.06359
0.08,4.21498
0.08,4.360201
0.08,4.50748
0.08,4.65839
0.08,4.80653
0.08,4.94398
0.08,5.06098
0.08,5.15809
0.08,5.236346
0.08,5.30132
0.08,5.3537
0.08,5.39468
0.08,5.427135
0.08,5.453717
0.08,5.47551
0.08,5.49349
0.08,5.50894
0.08,5.521404
0.08,5.53308
0.08,5.54358
0.08,5.55346
0.08,5.561878
0.08,5.570561
0.08,5.578022
0.08,5.5851
0.08,5.59169
0.08,5.597353
0.08,5.603116
0.08,5.60836
0.08,5.61415
0.08,5.619775
0.08,5.624431
0.08,5.62842
0.08,5.633457
0.08,5.636549