File: charging_cycle_198.csv
control/mA,Ewe/V
-0.08,-5.48023
-0.08,-5.493871
-0.08,-5.506428
-0.08,-5.51715
-0.08,-5.528144
-0.08,-5.537895
-0.08,-5.546826
-0.08,-5.55391
-0.08,-5.560184
-0.08,-5.56394
0.08,-4.77948
0.08,-3.77868
0.08,-2.77844
0.08,-1.77842
0.08,-0.7784069
0.08,0.2216101
0.08,0.770162
0.08,0.9354184
0.08,1.02026
0.08,1.10172
0.08,1.19021
0.08,1.29005
0.08,1.39787
0.08,1.52876
0.08,1.69674
0.08,1.89087
0.08,2.044888
0.08,2.14129
0.08,2.2156
0.08,2.28594
0.08,2.35605
0.08,2.434612
0.08,2.52598
0.08,2.63364
0.08,2.761728
0.08,2.90855
0.08,3.06675
0.08,3.22834
0.08,3.39266
0.08,3.55803
0.08,3.71642
0.08,3.859557
0.08,3.99413
0.08,4.122708
0.08,4.252689
0.08,4.38785
0.08,4.52487
0.08,4.65514
0.08,4.76933
0.08,4.864481
0.08,4.947777
0.08,5.01501
0.08,5.073036
0.08,5.124082
0.08,5.16944
0.08,5.211691
0.08,5.24936
0.08,5.27936
0.08,5.30314
0.08,5.322409
0.08,5.33893
0.08,5.352102
0.08,5.36286
0.08,5.37258
0.08,5.37918
0.08,5.38639
0.08,5.392519
0.08,5.39843
0.08,5.403644
0.08,5.409083
0.08,5.413796
0.08,5.41845
0.08,5.422364
0.08,5.42603
0.08,5.42786