File: charging_cycle_138.csv
control/mA,Ewe/V
-0.04,-2.47185
-0.04,-2.4873
-0.04,-2.5041
-0.04,-2.5211
-0.04,-2.53829
-0.04,-2.55493
-0.04,-2.56901
-0.04,-2.58508
-0.04,-2.59686
-0.04,-2.605272
0.04,-1.88927
0.04,-0.8891249
0.04,0.002114539
0.04,0.285747
0.04,0.462835
0.04,0.578762
0.04,0.655685
0.04,0.716788
0.04,0.7732725
0.04,0.830845
0.04,0.8854789
0.04,0.931583
0.04,0.973965
0.04,1.01684
0.04,1.06281
0.04,1.11424
0.04,1.17057
0.04,1.23486
0.04,1.30339
0.04,1.38382
0.04,1.47157
0.04,1.56719
0.04,1.67264
0.04,1.782634
0.04,1.88221
0.04,1.9697
0.04,2.03725
0.04,2.094503
0.04,2.142477
0.04,2.18595
0.04,2.22518
0.04,2.263497
0.04,2.29657
0.04,2.33563
0.04,2.37578
0.04,2.417571
0.04,2.448237
0.04,2.49596
0.04,2.5388
0.04,2.582045
0.04,2.62681
0.04,2.67322
0.04,2.71992
0.04,2.76991
0.04,2.82006
0.04,2.869927
0.04,2.91981
0.04,2.96824
0.04,3.0174
0.04,3.06205
0.04,3.110331
0.04,3.15546
0.04,3.19832
0.04,3.24002
0.04,3.28106
0.04,3.320909
0.04,3.3593
0.04,3.39665
0.04,3.43317
0.04,3.470632
0.04,3.50687
0.04,3.5338