File: charging_cycle_236.csv
control/mA,Ewe/V
-0.08,-6.41809
-0.08,-6.47444
-0.08,-6.535183
-0.08,-6.591496
-0.08,-6.6459
-0.08,-6.68899
-0.08,-6.73238
-0.08,-6.77847
-0.08,-6.821538
-0.08,-6.84703
0.08,-5.704541
0.08,-4.678625
0.08,-3.66935
0.08,-2.669228
0.08,-1.66923
0.08,-0.669158
0.08,0.2017259
0.08,0.598398
0.08,0.822162
0.08,0.9287585
0.08,1.01331
0.08,1.099797
0.08,1.19672
0.08,1.299803
0.08,1.41754
0.08,1.55902
0.08,1.74495
0.08,1.959359
0.08,2.15603
0.08,2.3051
0.08,2.44026
0.08,2.58783
0.08,2.75261
0.08,2.92952
0.08,3.1002
0.08,3.29738
0.08,3.49758
0.08,3.69142
0.08,3.8754
0.08,4.05277
0.08,4.222882
0.08,4.39257
0.08,4.551219
0.08,4.69499
0.08,4.821411
0.08,4.92452
0.08,5.02197
0.08,5.102824
0.08,5.17643
0.08,5.225297
0.08,5.301208
0.08,5.35926
0.08,5.41313
0.08,5.463125
0.08,5.509439
0.08,5.55253
0.08,5.59102
0.08,5.62512
0.08,5.65502
0.08,5.6792
0.08,5.701411
0.08,5.71998
0.08,5.735111
0.08,5.749614
0.08,5.76127
0.08,5.771521
0.08,5.78179
0.08,5.79112
0.08,5.79961
0.08,5.80721
0.08,5.814724
0.08,5.82104
0.08,5.826689
0.08,5.83207
0.08,5.8378
0.08,5.84152