File: charging_cycle_79.csv
control/mA,Ewe/V
-0.01,-0.590398
-0.01,-0.5943289
-0.01,-0.5987179
-0.01,-0.6017711
-0.01,-0.6049198
-0.01,-0.608889
-0.01,-0.61303
-0.01,-0.616274
-0.01,-0.6191173
-0.01,-0.6233155
0.01,-0.3361906
0.01,0.210714
0.01,0.260234
0.01,0.2898499
0.01,0.311642
0.01,0.32876
0.01,0.34393
0.01,0.356945
0.01,0.36952
0.01,0.380245
0.01,0.391236
0.01,0.400759
0.01,0.410319
0.01,0.419135
0.01,0.4272646
0.01,0.434688
0.01,0.442703
0.01,0.4500303
0.01,0.4571672
0.01,0.463999
0.01,0.470506
0.01,0.4769369
0.01,0.483082
0.01,0.489398
0.01,0.4952754
0.01,0.50121
0.01,0.5073548
0.01,0.5131178
0.01,0.518938
0.01,0.524396
0.01,0.5297579
0.01,0.535101
0.01,0.5407114
0.01,0.546035
0.01,0.5515313
0.01,0.556455
0.01,0.562523
0.01,0.567694
0.01,0.5725604
0.01,0.57777
0.01,0.5831132
0.01,0.588246
0.01,0.593685
0.01,0.598761
0.01,0.6040851
0.01,0.609142
0.01,0.6137791
0.01,0.6188742
0.01,0.6239884
0.01,0.6286446
0.01,0.63332
0.01,0.638339
0.01,0.6440825
0.01,0.6487959
0.01,0.6538528
0.01,0.65912
0.01,0.6639285
0.01,0.6688328
0.01,0.673718
0.01,0.678985
0.01,0.683679