File: charging_cycle_155.csv
control/mA,Ewe/V
-0.04,-2.89189
-0.04,-2.92397
-0.04,-2.954295
-0.04,-2.9825
-0.04,-3.009921
-0.04,-3.03521
-0.04,-3.05837
-0.04,-3.08276
-0.04,-3.10719
-0.04,-3.124
0.04,-2.48706
0.04,-1.48701
0.04,-0.486976
0.04,0.3778022
0.04,0.6533949
0.04,0.777433
0.04,0.8643925
0.04,0.947364
0.04,1.02742
0.04,1.09718
0.04,1.16914
0.04,1.24504
0.04,1.3307
0.04,1.426226
0.04,1.5349
0.04,1.652509
0.04,1.77309
0.04,1.88755
0.04,1.98342
0.04,2.05958
0.04,2.11423
0.04,2.15872
0.04,2.19656
0.04,2.23201
0.04,2.267371
0.04,2.30187
0.04,2.34223
0.04,2.3836
0.04,2.428143
0.04,2.476594
0.04,2.52819
0.04,2.582007
0.04,2.64761
0.04,2.71982
0.04,2.80029
0.04,2.88918
0.04,2.98169
0.04,3.07802
0.04,3.17666
0.04,3.27912
0.04,3.38381
0.04,3.49122
0.04,3.602379
0.04,3.72913
0.04,3.85553
0.04,3.97533
0.04,4.07647
0.04,4.156713
0.04,4.22008
0.04,4.27475
0.04,4.323276
0.04,4.363483
0.04,4.399454
0.04,4.43273
0.04,4.45859
0.04,4.47983
0.04,4.503283
0.04,4.52788
0.04,4.553051
0.04,4.57643
0.04,4.59767
0.04,4.619268
0.04,4.63026