File: charging_cycle_100.csv
control/mA,Ewe/V
-0.01,-0.6586758
-0.01,-0.663351
-0.01,-0.669057
-0.01,-0.6738084
-0.01,-0.680526
-0.01,-0.6855634
-0.01,-0.6878342
-0.01,-0.692567
-0.01,-0.6986541
-0.01,-0.7026615
0.01,-0.389814
0.01,0.217774
0.01,0.270023
0.01,0.300536
0.01,0.3215654
0.01,0.338664
0.01,0.354502
0.01,0.368528
0.01,0.381161
0.01,0.393011
0.01,0.405148
0.01,0.416025
0.01,0.42612
0.01,0.436043
0.01,0.445164
0.01,0.4546674
0.01,0.463388
0.01,0.471594
0.01,0.480086
0.01,0.4886728
0.01,0.496535
0.01,0.5042825
0.01,0.5121064
0.01,0.5194151
0.01,0.5259414
0.01,0.5325631
0.01,0.5396046
0.01,0.54657
0.01,0.5533632
0.01,0.5603666
0.01,0.566721
0.01,0.573457
0.01,0.5800218
0.01,0.586815
0.01,0.592922
0.01,0.6000587
0.01,0.606585
0.01,0.6132066
0.01,0.6202482
0.01,0.6269653
0.01,0.6340641
0.01,0.640075
0.01,0.6468495
0.01,0.653948
0.01,0.6593868
0.01,0.6660276
0.01,0.6735462
0.01,0.680359
0.01,0.6877438
0.01,0.6949189
0.01,0.702457
0.01,0.709498
0.01,0.716673
0.01,0.724402
0.01,0.7312142
0.01,0.739477
0.01,0.747091
0.01,0.754934
0.01,0.7620328
0.01,0.77062
0.01,0.777986