File: charging_cycle_56.csv
control/mA,Ewe/V
-0.01,-0.5217573
-0.01,-0.5245243
-0.01,-0.5271768
-0.01,-0.530077
-0.01,-0.533169
-0.01,-0.535592
-0.01,-0.5382066
-0.01,-0.540706
-0.01,-0.542882
-0.01,-0.5455916
0.01,-0.285212
0.01,0.204207
0.01,0.250845
0.01,0.279221
0.01,0.30046
0.01,0.3177107
0.01,0.332557
0.01,0.345762
0.01,0.357613
0.01,0.368184
0.01,0.378279
0.01,0.3874962
0.01,0.395854
0.01,0.404232
0.01,0.411598
0.01,0.41904
0.01,0.4256998
0.01,0.432073
0.01,0.4386379
0.01,0.44484
0.01,0.450813
0.01,0.456366
0.01,0.461747
0.01,0.4669185
0.01,0.472014
0.01,0.477223
0.01,0.482204
0.01,0.4870126
0.01,0.4915352
0.01,0.496115
0.01,0.50058
0.01,0.5048931
0.01,0.509072
0.01,0.513404
0.01,0.5174114
0.01,0.5217813
0.01,0.5259223
0.01,0.5296625
0.01,0.533708
0.01,0.5374673
0.01,0.5411312
0.01,0.5448905
0.01,0.548593
0.01,0.552104
0.01,0.555386
0.01,0.5587255
0.01,0.5626184
0.01,0.56613
0.01,0.569049
0.01,0.5725223
0.01,0.5758999
0.01,0.5790486
0.01,0.5821209
0.01,0.585289
0.01,0.588456
0.01,0.5915478
0.01,0.5945247
0.01,0.5973871
0.01,0.6003449
0.01,0.603055
0.01,0.605803