File: charging_cycle_128.csv
control/mA,Ewe/V
-0.02,-2.1948
-0.02,-2.23419
-0.02,-2.26879
-0.02,-2.301666
-0.02,-2.33338
-0.02,-2.36223
-0.02,-2.389141
-0.02,-2.41649
-0.02,-2.442172
-0.02,-2.452114
0.02,-1.72471
0.02,-0.72467
0.02,0.275347
0.02,0.417055
0.02,0.4852379
0.02,0.5252353
0.02,0.554012
0.02,0.5785524
0.02,0.603913
0.02,0.6293506
0.02,0.655704
0.02,0.683565
0.02,0.7127803
0.02,0.7434844
0.02,0.77354
0.02,0.801839
0.02,0.8275438
0.02,0.851855
0.02,0.875499
0.02,0.8982262
0.02,0.921488
0.02,0.945647
0.02,0.9726297
0.02,0.99988
0.02,1.02999
0.02,1.06119
0.02,1.09558
0.02,1.13153
0.02,1.17002
0.02,1.21137
0.02,1.25582
0.02,1.30389
0.02,1.3528
0.02,1.40607
0.02,1.46319
0.02,1.52504
0.02,1.58719
0.02,1.65516
0.02,1.72535
0.02,1.79683
0.02,1.873983
0.02,1.94705
0.02,2.021817
0.02,2.09441
0.02,2.16223
0.02,2.22432
0.02,2.28321
0.02,2.33624
0.02,2.38855
0.02,2.44141
0.02,2.48911
0.02,2.53415
0.02,2.58176
0.02,2.62742
0.02,2.67282
0.02,2.71683
0.02,2.76005
0.02,2.803271
0.02,2.845444
0.02,2.88855
0.02,2.92987
0.02,2.97045
0.02,2.97242