File: charging_cycle_199.csv
control/mA,Ewe/V
-0.08,-5.36571
-0.08,-5.400805
-0.08,-5.42655
-0.08,-5.445
-0.08,-5.45838
-0.08,-5.47149
-0.08,-5.48471
-0.08,-5.49595
-0.08,-5.506905
-0.08,-5.515607
0.08,-4.76273
0.08,-3.76084
0.08,-2.7605
0.08,-1.76042
0.08,-0.7603737
0.08,0.2397196
0.08,0.791115
0.08,0.9598443
0.08,1.040984
0.08,1.11701
0.08,1.20399
0.08,1.30236
0.08,1.41201
0.08,1.54912
0.08,1.72374
0.08,1.9194
0.08,2.06483
0.08,2.16101
0.08,2.23634
0.08,2.31248
0.08,2.38916
0.08,2.478712
0.08,2.58376
0.08,2.71015
0.08,2.85842
0.08,3.02316
0.08,3.19365
0.08,3.3676
0.08,3.54431
0.08,3.71373
0.08,3.870854
0.08,4.01478
0.08,4.15534
0.08,4.29666
0.08,4.446951
0.08,4.597285
0.08,4.736703
0.08,4.856867
0.08,4.958101
0.08,5.041893
0.08,5.11095
0.08,5.171045
0.08,5.223446
0.08,5.26923
0.08,5.30621
0.08,5.334603
0.08,5.35859
0.08,5.378398
0.08,5.392767
0.08,5.40586
0.08,5.41712
0.08,5.4261
0.08,5.4337
0.08,5.440378
0.08,5.44641
0.08,5.452057
0.08,5.45792
0.08,5.46311
0.08,5.4695
0.08,5.4769
0.08,5.481387
0.08,5.485547
0.08,5.48938
0.08,5.49394
0.08,5.4957