File: charging_cycle_61.csv
control/mA,Ewe/V
-0.01,-0.538264
-0.01,-0.5415652
-0.01,-0.5444657
-0.01,-0.547233
-0.01,-0.550191
-0.01,-0.553492
-0.01,-0.5561825
-0.01,-0.559064
-0.01,-0.5618501
-0.01,-0.5645598
0.01,-0.298438
0.01,0.202756
0.01,0.250883
0.01,0.2798124
0.01,0.30088
0.01,0.318436
0.01,0.332786
0.01,0.346029
0.01,0.357498
0.01,0.368356
0.01,0.378585
0.01,0.387954
0.01,0.3963506
0.01,0.404251
0.01,0.412227
0.01,0.419479
0.01,0.426749
0.01,0.433581
0.01,0.440145
0.01,0.4467099
0.01,0.4530072
0.01,0.458808
0.01,0.464781
0.01,0.4706587
0.01,0.475754
0.01,0.481192
0.01,0.486383
0.01,0.491344
0.01,0.496592
0.01,0.5013437
0.01,0.50621
0.01,0.510828
0.01,0.5154459
0.01,0.5198731
0.01,0.5242621
0.01,0.528689
0.01,0.5331928
0.01,0.537486
0.01,0.542028
0.01,0.5464362
0.01,0.550711
0.01,0.5545082
0.01,0.5586491
0.01,0.5628474
0.01,0.566607
0.01,0.570557
0.01,0.5743924
0.01,0.5783807
0.01,0.582312
0.01,0.5862046
0.01,0.590002
0.01,0.593571
0.01,0.597292
0.01,0.6010319
0.01,0.60439
0.01,0.60836
0.01,0.6115846
0.01,0.6145424
0.01,0.6180918
0.01,0.621698
0.01,0.6246181