File: charging_cycle_235.csv
control/mA,Ewe/V
-0.08,-6.40101
-0.08,-6.45647
-0.08,-6.5132
-0.08,-6.57331
-0.08,-6.631188
-0.08,-6.68233
-0.08,-6.72238
-0.08,-6.7607
-0.08,-6.80152
-0.08,-6.82743
0.08,-5.69548
0.08,-4.65874
0.08,-3.64113
0.08,-2.641
0.08,-1.641
0.08,-0.640973
0.08,0.230674
0.08,0.617538
0.08,0.8378484
0.08,0.9449216
0.08,1.03097
0.08,1.12054
0.08,1.21611
0.08,1.31854
0.08,1.43712
0.08,1.58736
0.08,1.775478
0.08,1.98369
0.08,2.16566
0.08,2.31389
0.08,2.452149
0.08,2.59714
0.08,2.76476
0.08,2.94393
0.08,3.128059
0.08,3.324153
0.08,3.52586
0.08,3.72018
0.08,3.906386
0.08,4.08403
0.08,4.25357
0.08,4.422296
0.08,4.57832
0.08,4.71638
0.08,4.83189
0.08,4.935755
0.08,5.018822
0.08,5.10134
0.08,5.174442
0.08,5.238693
0.08,5.29873
0.08,5.356033
0.08,5.40719
0.08,5.45627
0.08,5.501405
0.08,5.54211
0.08,5.57814
0.08,5.612676
0.08,5.64058
0.08,5.665631
0.08,5.68658
0.08,5.70322
0.08,5.720131
0.08,5.734405
0.08,5.7475
0.08,5.757858
0.08,5.767838
0.08,5.77671
0.08,5.78602
0.08,5.79387
0.08,5.80137
0.08,5.808236
0.08,5.81501
0.08,5.82096
0.08,5.82661
0.08,5.82879