File: charging_cycle_145.csv
control/mA,Ewe/V
-0.04,-2.53671
-0.04,-2.55598
-0.04,-2.57359
-0.04,-2.59136
-0.04,-2.60804
-0.04,-2.62588
-0.04,-2.643514
-0.04,-2.65708
-0.04,-2.67786
-0.04,-2.67884
0.04,-2.03162
0.04,-1.03148
0.04,-0.031471
0.04,0.384424
0.04,0.572198
0.04,0.6882781
0.04,0.7761731
0.04,0.85384
0.04,0.9265831
0.04,0.99364
0.04,1.04963
0.04,1.10457
0.04,1.16405
0.04,1.22845
0.04,1.29996
0.04,1.38222
0.04,1.46825
0.04,1.56543
0.04,1.66323
0.04,1.76214
0.04,1.86196
0.04,1.95073
0.04,2.02004
0.04,2.07365
0.04,2.11345
0.04,2.14723
0.04,2.17746
0.04,2.206478
0.04,2.23588
0.04,2.26752
0.04,2.30021
0.04,2.33571
0.04,2.37517
0.04,2.41837
0.04,2.46396
0.04,2.51323
0.04,2.56649
0.04,2.62372
0.04,2.68551
0.04,2.75201
0.04,2.819224
0.04,2.88844
0.04,2.95832
0.04,3.02894
0.04,3.09884
0.04,3.166129
0.04,3.22744
0.04,3.28185
0.04,3.33808
0.04,3.39667
0.04,3.4517
0.04,3.507767
0.04,3.55868
0.04,3.60969
0.04,3.65808
0.04,3.69629
0.04,3.737313
0.04,3.773322
0.04,3.81122
0.04,3.84418
0.04,3.87837
0.04,3.90736
0.04,3.90864