File: charging_cycle_256.csv
control/mA,Ewe/V
-0.08,-5.37562
-0.08,-5.40115
-0.08,-5.424792
-0.08,-5.446661
-0.08,-5.466545
-0.08,-5.48557
-0.08,-5.50284
-0.08,-5.51824
-0.08,-5.531846
-0.08,-5.538754
0.08,-4.760401
0.08,-3.75608
0.08,-2.75581
0.08,-1.75579
0.08,-0.7557557
0.08,0.16905
0.08,0.592674
0.08,0.8059612
0.08,0.911412
0.08,0.9826863
0.08,1.04713
0.08,1.11382
0.08,1.18409
0.08,1.26208
0.08,1.36068
0.08,1.48727
0.08,1.64904
0.08,1.82731
0.08,1.99008
0.08,2.10849
0.08,2.20737
0.08,2.303838
0.08,2.40633
0.08,2.523003
0.08,2.65933
0.08,2.810618
0.08,2.97126
0.08,3.13834
0.08,3.309574
0.08,3.478456
0.08,3.63461
0.08,3.775555
0.08,3.90499
0.08,4.0255
0.08,4.130627
0.08,4.245514
0.08,4.36467
0.08,4.470461
0.08,4.568966
0.08,4.660353
0.08,4.730253
0.08,4.8083
0.08,4.87618
0.08,4.93839
0.08,4.994606
0.08,5.04567
0.08,5.091928
0.08,5.137593
0.08,5.18185
0.08,5.21845
0.08,5.252719
0.08,5.281
0.08,5.30338
0.08,5.321741
0.08,5.33724
0.08,5.35107
0.08,5.362712
0.08,5.3721
0.08,5.38059
0.08,5.38727
0.08,5.39294
0.08,5.397671
0.08,5.40284
0.08,5.406965
0.08,5.408739