File: charging_cycle_173.csv
control/mA,Ewe/V
-0.04,-3.99184
-0.04,-4.08264
-0.04,-4.158415
-0.04,-4.22447
-0.04,-4.27962
-0.04,-4.32502
-0.04,-4.36692
-0.04,-4.40335
-0.04,-4.438139
-0.04,-4.46434
0.04,-3.77995
0.04,-2.779717
0.04,-1.7797
0.04,-0.77959
0.04,0.220484
0.04,0.7229705
0.04,0.84489
0.04,0.927785
0.04,1.00755
0.04,1.09352
0.04,1.18153
0.04,1.27255
0.04,1.371554
0.04,1.48138
0.04,1.60837
0.04,1.748037
0.04,1.88518
0.04,1.9894
0.04,2.06057
0.04,2.11236
0.04,2.151961
0.04,2.189077
0.04,2.22579
0.04,2.25773
0.04,2.29422
0.04,2.32935
0.04,2.36538
0.04,2.404137
0.04,2.44641
0.04,2.492566
0.04,2.54312
0.04,2.60006
0.04,2.662326
0.04,2.72999
0.04,2.80245
0.04,2.87783
0.04,2.95693
0.04,3.04119
0.04,3.12802
0.04,3.21977
0.04,3.313505
0.04,3.40735
0.04,3.50447
0.04,3.60322
0.04,3.70928
0.04,3.8233
0.04,3.94365
0.04,4.064315
0.04,4.17339
0.04,4.27147
0.04,4.352988
0.04,4.42035
0.04,4.478533
0.04,4.53078
0.04,4.578431
0.04,4.62278
0.04,4.66343
0.04,4.700675
0.04,4.73655
0.04,4.765384
0.04,4.80073
0.04,4.83307
0.04,4.865187
0.04,4.8879