File: charging_cycle_86.csv
control/mA,Ewe/V
-0.01,-0.6159878
-0.01,-0.6210447
-0.01,-0.6262924
-0.01,-0.627304
-0.01,-0.633697
-0.01,-0.6379329
-0.01,-0.641654
-0.01,-0.645261
-0.01,-0.6502222
-0.01,-0.6539433
0.01,-0.358233
0.01,0.210809
0.01,0.261321
0.01,0.292159
0.01,0.312711
0.01,0.3301717
0.01,0.344694
0.01,0.358281
0.01,0.371066
0.01,0.3824393
0.01,0.393278
0.01,0.4027242
0.01,0.411884
0.01,0.421101
0.01,0.429936
0.01,0.437817
0.01,0.4461374
0.01,0.454114
0.01,0.461041
0.01,0.468426
0.01,0.475677
0.01,0.482738
0.01,0.4894552
0.01,0.4960578
0.01,0.503004
0.01,0.5092058
0.01,0.5152169
0.01,0.521247
0.01,0.5272199
0.01,0.5332691
0.01,0.5393183
0.01,0.5447951
0.01,0.550806
0.01,0.5561493
0.01,0.5616642
0.01,0.5668547
0.01,0.5727322
0.01,0.5783425
0.01,0.58338
0.01,0.5887617
0.01,0.595193
0.01,0.6004594
0.01,0.6062224
0.01,0.6112411
0.01,0.6166415
0.01,0.6222328
0.01,0.6279385
0.01,0.632747
0.01,0.6377279
0.01,0.643338
0.01,0.6487959
0.01,0.6544253
0.01,0.660398
0.01,0.665531
0.01,0.6716189
0.01,0.6766758
0.01,0.6821716
0.01,0.688106
0.01,0.693946
0.01,0.700033
0.01,0.7056815