File: charging_cycle_224.csv
control/mA,Ewe/V
-0.08,-6.63323
-0.08,-6.695134
-0.08,-6.75326
-0.08,-6.807
-0.08,-6.85999
-0.08,-6.911647
-0.08,-6.962693
-0.08,-7.01362
-0.08,-7.063717
-0.08,-7.09499
0.08,-5.979151
0.08,-4.877085
0.08,-3.86181
0.08,-2.85918
0.08,-1.85915
0.08,-0.8591459
0.08,0.140941
0.08,0.575919
0.08,0.847428
0.08,0.9847663
0.08,1.07089
0.08,1.150786
0.08,1.23162
0.08,1.32104
0.08,1.42455
0.08,1.5545
0.08,1.72642
0.08,1.92732
0.08,2.10601
0.08,2.25543
0.08,2.38315
0.08,2.508691
0.08,2.65093
0.08,2.81193
0.08,2.987324
0.08,3.171167
0.08,3.36505
0.08,3.56414
0.08,3.74989
0.08,3.92308
0.08,4.07983
0.08,4.22979
0.08,4.386783
0.08,4.54095
0.08,4.68169
0.08,4.803149
0.08,4.906883
0.08,4.9938
0.08,5.06857
0.08,5.136715
0.08,5.198581
0.08,5.25802
0.08,5.31443
0.08,5.365765
0.08,5.41252
0.08,5.45708
0.08,5.497073
0.08,5.529552
0.08,5.555657
0.08,5.57995
0.08,5.600005
0.08,5.619298
0.08,5.63634
0.08,5.65191
0.08,5.665192
0.08,5.676813
0.08,5.687099
0.08,5.696583
0.08,5.70549
0.08,5.71372
0.08,5.721467
0.08,5.72878
0.08,5.73547
0.08,5.7421
0.08,5.747858
0.08,5.752419