File: charging_cycle_43.csv
control/mA,Ewe/V
-0.01,-0.458803
-0.01,-0.460387
-0.01,-0.462276
-0.01,-0.4638794
-0.01,-0.465578
-0.01,-0.467333
-0.01,-0.469051
-0.01,-0.470482
-0.01,-0.4721804
-0.01,-0.473745
0.01,-0.223573
0.01,0.224682
0.01,0.265863
0.01,0.293876
0.01,0.315344
0.01,0.33332
0.01,0.348358
0.01,0.361162
0.01,0.3725926
0.01,0.383031
0.01,0.392515
0.01,0.4010831
0.01,0.408983
0.01,0.4161966
0.01,0.4231809
0.01,0.42965
0.01,0.435718
0.01,0.441767
0.01,0.446996
0.01,0.4523011
0.01,0.457415
0.01,0.462243
0.01,0.46688
0.01,0.471708
0.01,0.4759446
0.01,0.480238
0.01,0.484207
0.01,0.4882339
0.01,0.491936
0.01,0.496001
0.01,0.4994736
0.01,0.5031375
0.01,0.5066106
0.01,0.5098737
0.01,0.5131941
0.01,0.516476
0.01,0.5194914
0.01,0.5225637
0.01,0.5257696
0.01,0.528575
0.01,0.5315135
0.01,0.534338
0.01,0.537143
0.01,0.5398527
0.01,0.542696
0.01,0.5452149
0.01,0.548001
0.01,0.550291
0.01,0.5529625
0.01,0.5554051
0.01,0.557332
0.01,0.5594888
0.01,0.5614925
0.01,0.5636488
0.01,0.565481
0.01,0.5675608
0.01,0.569584
0.01,0.571435
0.01,0.573133
0.01,0.574812
0.01,0.5763579