File: charging_cycle_82.csv
control/mA,Ewe/V
-0.01,-0.6009697
-0.01,-0.6041565
-0.01,-0.608278
-0.01,-0.612133
-0.01,-0.6167892
-0.01,-0.619556
-0.01,-0.6244605
-0.01,-0.6276855
-0.01,-0.6316928
-0.01,-0.6339828
0.01,-0.343485
0.01,0.209779
0.01,0.260234
0.01,0.2896782
0.01,0.3108409
0.01,0.328397
0.01,0.3428617
0.01,0.355666
0.01,0.368184
0.01,0.379501
0.01,0.390091
0.01,0.399652
0.01,0.409365
0.01,0.4175515
0.01,0.425414
0.01,0.433695
0.01,0.44108
0.01,0.448771
0.01,0.4554307
0.01,0.4621669
0.01,0.46917
0.01,0.475487
0.01,0.482204
0.01,0.4884629
0.01,0.4948365
0.01,0.5008857
0.01,0.5070686
0.01,0.5127552
0.01,0.5184991
0.01,0.524033
0.01,0.529682
0.01,0.535273
0.01,0.5406923
0.01,0.546264
0.01,0.550882
0.01,0.556474
0.01,0.5619695
0.01,0.56716
0.01,0.5724459
0.01,0.5779799
0.01,0.582922
0.01,0.588132
0.01,0.5938
0.01,0.5987801
0.01,0.6038943
0.01,0.60876
0.01,0.6141989
0.01,0.619504
0.01,0.625133
0.01,0.6296369
0.01,0.635018
0.01,0.6403041
0.01,0.645437
0.01,0.6508378
0.01,0.655628
0.01,0.6610089
0.01,0.666123
0.01,0.6713135
0.01,0.6757407
0.01,0.681446
0.01,0.686503