File: charging_cycle_67.csv
control/mA,Ewe/V
-0.01,-0.553721
-0.01,-0.5574229
-0.01,-0.560801
-0.01,-0.5641019
-0.01,-0.5677848
-0.01,-0.5705709
-0.01,-0.573624
-0.01,-0.577116
-0.01,-0.580093
-0.01,-0.583872
0.01,-0.308938
0.01,0.21205
0.01,0.2613785
0.01,0.290823
0.01,0.312539
0.01,0.329905
0.01,0.345037
0.01,0.358147
0.01,0.370188
0.01,0.3811989
0.01,0.391561
0.01,0.4006442
0.01,0.409346
0.01,0.4173034
0.01,0.4252609
0.01,0.432818
0.01,0.440107
0.01,0.448103
0.01,0.454114
0.01,0.46043
0.01,0.466651
0.01,0.4730822
0.01,0.4791696
0.01,0.485085
0.01,0.490619
0.01,0.496363
0.01,0.5017636
0.01,0.5070113
0.01,0.5120873
0.01,0.517221
0.01,0.5220103
0.01,0.52701
0.01,0.5322005
0.01,0.5370666
0.01,0.5416846
0.01,0.5463217
0.01,0.5512641
0.01,0.556187
0.01,0.5606338
0.01,0.5652136
0.01,0.5699461
0.01,0.5742588
0.01,0.5787814
0.01,0.582789
0.01,0.58714
0.01,0.591643
0.01,0.5965093
0.01,0.6008792
0.01,0.60502
0.01,0.6092565
0.01,0.613474
0.01,0.6174621
0.01,0.6213168
0.01,0.625515
0.01,0.62937
0.01,0.6336633
0.01,0.6376707
0.01,0.641201
0.01,0.645247
0.01,0.6491585
0.01,0.6532231