File: charging_cycle_240.csv
control/mA,Ewe/V
-0.08,-6.46658
-0.08,-6.524611
-0.08,-6.582775
-0.08,-6.64552
-0.08,-6.70534
-0.08,-6.759939
-0.08,-6.803868
-0.08,-6.84407
-0.08,-6.88592
-0.08,-6.908078
0.08,-5.81507
0.08,-4.707459
0.08,-3.68414
0.08,-2.683998
0.08,-1.683882
0.08,-0.683852
0.08,0.215313
0.08,0.5970054
0.08,0.8102548
0.08,0.916488
0.08,0.998888
0.08,1.084588
0.08,1.17901
0.08,1.28406
0.08,1.39995
0.08,1.53769
0.08,1.71999
0.08,1.93699
0.08,2.13815
0.08,2.29004
0.08,2.42314
0.08,2.56661
0.08,2.73444
0.08,2.92286
0.08,3.11148
0.08,3.30856
0.08,3.50956
0.08,3.69993
0.08,3.88272
0.08,4.05807
0.08,4.225649
0.08,4.393214
0.08,4.558146
0.08,4.705808
0.08,4.826907
0.08,4.935011
0.08,5.016933
0.08,5.09578
0.08,5.162553
0.08,5.228293
0.08,5.28743
0.08,5.340366
0.08,5.393034
0.08,5.441237
0.08,5.48454
0.08,5.52161
0.08,5.555676
0.08,5.585655
0.08,5.612695
0.08,5.63766
0.08,5.66128
0.08,5.68143
0.08,5.700667
0.08,5.71761
0.08,5.73215
0.08,5.744862
0.08,5.75895
0.08,5.76925
0.08,5.77887
0.08,5.78719
0.08,5.794897
0.08,5.80196
0.08,5.80888
0.08,5.81455
0.08,5.819934
0.08,5.822357