File: charging_cycle_114.csv
control/mA,Ewe/V
-0.02,-1.56236
-0.02,-1.59913
-0.02,-1.63396
-0.02,-1.67266
-0.02,-1.70597
-0.02,-1.74225
-0.02,-1.77564
-0.02,-1.81039
-0.02,-1.84243
-0.02,-1.85974
0.02,-1.17589
0.02,-0.175736
0.02,0.435146
0.02,0.488577
0.02,0.5232316
0.02,0.5518557
0.02,0.576778
0.02,0.5996961
0.02,0.6229388
0.02,0.647212
0.02,0.6721913
0.02,0.698449
0.02,0.726386
0.02,0.7537318
0.02,0.7797988
0.02,0.803061
0.02,0.8254447
0.02,0.8467219
0.02,0.8670259
0.02,0.888265
0.02,0.909752
0.02,0.932785
0.02,0.9567529
0.02,0.983736
0.02,1.011921
0.02,1.04175
0.02,1.07356
0.02,1.107182
0.02,1.144088
0.02,1.18254
0.02,1.22284
0.02,1.26755
0.02,1.31494
0.02,1.36497
0.02,1.41768
0.02,1.47407
0.02,1.53359
0.02,1.59553
0.02,1.66064
0.02,1.72638
0.02,1.78158
0.02,1.8508
0.02,1.91825
0.02,1.98295
0.02,2.04758
0.02,2.10731
0.02,2.163239
0.02,2.2093
0.02,2.26014
0.02,2.308
0.02,2.35303
0.02,2.39832
0.02,2.44217
0.02,2.482624
0.02,2.525293
0.02,2.56567
0.02,2.60737
0.02,2.64813
0.02,2.68822
0.02,2.72713
0.02,2.7681
0.02,2.8026