File: charging_cycle_2.csv
control/mA,Ewe/V
-0.01,-1.29755
-0.01,-1.30447
-0.01,-1.31146
-0.01,-1.31859
-0.01,-1.32543
-0.01,-1.332544
-0.01,-1.33928
-0.01,-1.34619
-0.01,-1.35281
-0.01,-1.35985
0.01,-0.291304
0.01,0.7087157
0.01,0.7817834
0.01,0.8226586
0.01,0.8513781
0.01,0.874621
0.01,0.8941616
0.01,0.9108971
0.01,0.9261251
0.01,0.939369
0.01,0.9520967
0.01,0.9636799
0.01,0.973965
0.01,0.983927
0.01,0.9938497
0.01,1.002437
0.01,1.0115
0.01,1.01963
0.01,1.02745
0.01,1.03553
0.01,1.04348
0.01,1.05081
0.01,1.058044
0.01,1.06512
0.01,1.07205
0.01,1.0794
0.01,1.08602
0.01,1.09297
0.01,1.10037
0.01,1.10632
0.01,1.11306
0.01,1.11974
0.01,1.1264
0.01,1.13312
0.01,1.13941
0.01,1.14615
0.01,1.15262
0.01,1.15909
0.01,1.16537
0.01,1.17183
0.01,1.17851
0.01,1.18452
0.01,1.19071
0.01,1.19702
0.01,1.20302
0.01,1.20945
0.01,1.21527
0.01,1.22175
0.01,1.22809
0.01,1.23412
0.01,1.24034
0.01,1.246524
0.01,1.25324
0.01,1.259443
0.01,1.265664
0.01,1.27232
0.01,1.2786
0.01,1.28498
0.01,1.29129
0.01,1.297513
0.01,1.30335
0.01,1.30623