File: charging_cycle_215.csv
control/mA,Ewe/V
-0.08,-6.4775
-0.08,-6.52024
-0.08,-6.56365
-0.08,-6.602659
-0.08,-6.641
-0.08,-6.68204
-0.08,-6.720056
-0.08,-6.75799
-0.08,-6.794708
-0.08,-6.82347
0.08,-5.52604
0.08,-4.5006
0.08,-3.49505
0.08,-2.49496
0.08,-1.49487
0.08,-0.494666
0.08,0.5053511
0.08,0.9191408
0.08,1.10199
0.08,1.16298
0.08,1.215362
0.08,1.28076
0.08,1.359322
0.08,1.45834
0.08,1.58942
0.08,1.76115
0.08,1.9609
0.08,2.158411
0.08,2.32197
0.08,2.46343
0.08,2.59185
0.08,2.73112
0.08,2.89296
0.08,3.07629
0.08,3.27555
0.08,3.48431
0.08,3.69245
0.08,3.88496
0.08,4.059277
0.08,4.22229
0.08,4.38035
0.08,4.53653
0.08,4.69735
0.08,4.836506
0.08,4.977794
0.08,5.096355
0.08,5.196673
0.08,5.28172
0.08,5.3588
0.08,5.42366
0.08,5.484956
0.08,5.53747
0.08,5.582373
0.08,5.61895
0.08,5.65264
0.08,5.68191
0.08,5.708128
0.08,5.734367
0.08,5.75383
0.08,5.774364
0.08,5.79196
0.08,5.80711
0.08,5.82095
0.08,5.83167
0.08,5.846058
0.08,5.859397
0.08,5.87087
0.08,5.88174
0.08,5.88903
0.08,5.89651
0.08,5.904604
0.08,5.91161
0.08,5.9159
0.08,5.924698
0.08,5.93201
0.08,5.93296