File: charging_cycle_27.csv
control/mA,Ewe/V
-0.01,-2.13612
-0.01,-2.15041
-0.01,-2.16373
-0.01,-2.17751
-0.01,-2.190484
-0.01,-2.20349
-0.01,-2.21627
-0.01,-2.228598
-0.01,-2.24058
-0.01,-2.25352
0.01,-0.951938
0.01,0.0612007
0.01,1.06123
0.01,1.17598
0.01,1.207538
0.01,1.23652
0.01,1.26246
0.01,1.284804
0.01,1.306272
0.01,1.324954
0.01,1.34329
0.01,1.36016
0.01,1.37631
0.01,1.39123
0.01,1.405922
0.01,1.42052
0.01,1.434069
0.01,1.44756
0.01,1.46157
0.01,1.47477
0.01,1.488035
0.01,1.501202
0.01,1.515
0.01,1.52828
0.01,1.541562
0.01,1.55498
0.01,1.56912
0.01,1.58284
0.01,1.5966
0.01,1.61043
0.01,1.62453
0.01,1.63829
0.01,1.65199
0.01,1.6651
0.01,1.67898
0.01,1.69293
0.01,1.70663
0.01,1.72075
0.01,1.73498
0.01,1.74903
0.01,1.76241
0.01,1.77632
0.01,1.79029
0.01,1.8042
0.01,1.81761
0.01,1.83192
0.01,1.84563
0.01,1.858984
0.01,1.87259
0.01,1.886692
0.01,1.89973
0.01,1.91314
0.01,1.92625
0.01,1.93953
0.01,1.9535
0.01,1.9664
0.01,1.97959
0.01,1.99241
0.01,2.00516
0.01,2.017256
0.01,2.029679
0.01,2.04183
0.01,2.05365