File: charging_cycle_148.csv
control/mA,Ewe/V
-0.04,-2.61514
-0.04,-2.636
-0.04,-2.653704
-0.04,-2.67565
-0.04,-2.6963
-0.04,-2.71635
-0.04,-2.736256
-0.04,-2.755701
-0.04,-2.77267
-0.04,-2.778467
0.04,-2.14319
0.04,-1.1431
0.04,-0.1430668
0.04,0.370742
0.04,0.5783807
0.04,0.7011971
0.04,0.7976793
0.04,0.8813571
0.04,0.9585657
0.04,1.02801
0.04,1.08915
0.04,1.14909
0.04,1.21859
0.04,1.29801
0.04,1.37468
0.04,1.466128
0.04,1.56608
0.04,1.67297
0.04,1.77836
0.04,1.8808
0.04,1.962813
0.04,2.03103
0.04,2.08172
0.04,2.11994
0.04,2.15124
0.04,2.18074
0.04,2.20862
0.04,2.23636
0.04,2.26487
0.04,2.295976
0.04,2.33048
0.04,2.36851
0.04,2.410644
0.04,2.4578
0.04,2.50882
0.04,2.564947
0.04,2.62674
0.04,2.69431
0.04,2.76772
0.04,2.843631
0.04,2.92031
0.04,2.99521
0.04,3.07007
0.04,3.14626
0.04,3.22063
0.04,3.298582
0.04,3.37739
0.04,3.45411
0.04,3.52862
0.04,3.60994
0.04,3.68111
0.04,3.7522
0.04,3.81761
0.04,3.87725
0.04,3.929934
0.04,3.97684
0.04,4.01985
0.04,4.060746
0.04,4.099217
0.04,4.1365
0.04,4.17104
0.04,4.204963
0.04,4.210497