File: charging_cycle_70.csv
control/mA,Ewe/V
-0.01,-0.566296
-0.01,-0.5696931
-0.01,-0.572975
-0.01,-0.576945
-0.01,-0.5796543
-0.01,-0.5829174
-0.01,-0.586142
-0.01,-0.589348
-0.01,-0.5931648
-0.01,-0.5958173
0.01,-0.318476
0.01,0.211992
0.01,0.261398
0.01,0.291357
0.01,0.312215
0.01,0.329561
0.01,0.3442929
0.01,0.357517
0.01,0.369139
0.01,0.380035
0.01,0.3898243
0.01,0.399289
0.01,0.4084872
0.01,0.4168645
0.01,0.424917
0.01,0.432093
0.01,0.439458
0.01,0.446443
0.01,0.4534461
0.01,0.459648
0.01,0.4659262
0.01,0.472395
0.01,0.478883
0.01,0.484799
0.01,0.490505
0.01,0.496439
0.01,0.5020498
0.01,0.507641
0.01,0.512374
0.01,0.517793
0.01,0.523289
0.01,0.5280977
0.01,0.532887
0.01,0.5376963
0.01,0.543497
0.01,0.5483063
0.01,0.553077
0.01,0.5580576
0.01,0.5632099
0.01,0.5679806
0.01,0.572923
0.01,0.577732
0.01,0.5822926
0.01,0.586567
0.01,0.5911661
0.01,0.5958986
0.01,0.6012036
0.01,0.605574
0.01,0.6104206
0.01,0.6150768
0.01,0.619943
0.01,0.6242937
0.01,0.628549
0.01,0.6331481
0.01,0.6373272
0.01,0.6417353
0.01,0.646277
0.01,0.650208
0.01,0.6546543
0.01,0.6586808
0.01,0.663451