File: charging_cycle_142.csv
control/mA,Ewe/V
-0.04,-2.46604
-0.04,-2.48522
-0.04,-2.504019
-0.04,-2.52301
-0.04,-2.541555
-0.04,-2.5601
-0.04,-2.57642
-0.04,-2.59512
-0.04,-2.6126
-0.04,-2.62695
0.04,-1.95291
0.04,-0.9528802
0.04,0.0471879
0.04,0.377955
0.04,0.5468942
0.04,0.6554749
0.04,0.732779
0.04,0.8035568
0.04,0.8745827
0.04,0.9396929
0.04,0.9951282
0.04,1.04417
0.04,1.09421
0.04,1.15023
0.04,1.2099
0.04,1.27746
0.04,1.353788
0.04,1.43508
0.04,1.52649
0.04,1.61843
0.04,1.723802
0.04,1.82944
0.04,1.92579
0.04,2.00243
0.04,2.06347
0.04,2.11118
0.04,2.15276
0.04,2.18925
0.04,2.225141
0.04,2.26098
0.04,2.29941
0.04,2.33943
0.04,2.38212
0.04,2.42778
0.04,2.476136
0.04,2.52728
0.04,2.579946
0.04,2.63567
0.04,2.6945
0.04,2.75514
0.04,2.82302
0.04,2.89151
0.04,2.95929
0.04,3.02169
0.04,3.08831
0.04,3.14991
0.04,3.210878
0.04,3.269691
0.04,3.3261
0.04,3.38192
0.04,3.43584
0.04,3.48649
0.04,3.5375
0.04,3.58385
0.04,3.63137
0.04,3.67323
0.04,3.715616
0.04,3.75456
0.04,3.79044
0.04,3.82698
0.04,3.860473
0.04,3.883544