File: charging_cycle_118.csv
control/mA,Ewe/V
-0.02,-1.70296
-0.02,-1.74282
-0.02,-1.782171
-0.02,-1.81973
-0.02,-1.85886
-0.02,-1.8972
-0.02,-1.93541
-0.02,-1.96804
-0.02,-2.00422
-0.02,-2.02454
0.02,-1.32979
0.02,-0.329658
0.02,0.4218451
0.02,0.4845891
0.02,0.518041
0.02,0.5451386
0.02,0.5696599
0.02,0.5933988
0.02,0.6170995
0.02,0.6423841
0.02,0.6682603
0.02,0.6939266
0.02,0.721902
0.02,0.7490565
0.02,0.775524
0.02,0.7996067
0.02,0.8212656
0.02,0.84405
0.02,0.864965
0.02,0.8847919
0.02,0.907119
0.02,0.9299798
0.02,0.956104
0.02,0.9822474
0.02,1.01038
0.02,1.04034
0.02,1.07314
0.02,1.10745
0.02,1.143382
0.02,1.18065
0.02,1.22154
0.02,1.26528
0.02,1.313657
0.02,1.36062
0.02,1.41184
0.02,1.47309
0.02,1.52916
0.02,1.5928
0.02,1.658
0.02,1.72823
0.02,1.797862
0.02,1.87047
0.02,1.94129
0.02,2.01163
0.02,2.076756
0.02,2.141561
0.02,2.200257
0.02,2.25707
0.02,2.30994
0.02,2.36049
0.02,2.408545
0.02,2.456996
0.02,2.5019
0.02,2.5468
0.02,2.59262
0.02,2.635763
0.02,2.673871
0.02,2.719078
0.02,2.76142
0.02,2.80152
0.02,2.842257
0.02,2.87372