File: charging_cycle_267.csv
control/mA,Ewe/V
-0.08,-5.40508
-0.08,-5.41874
-0.08,-5.43111
-0.08,-5.443283
-0.08,-5.45462
-0.08,-5.4654
-0.08,-5.47473
-0.08,-5.485189
-0.08,-5.49498
-0.08,-5.499577
0.08,-4.866525
0.08,-3.86547
0.08,-2.86505
0.08,-1.86499
0.08,-0.8649661
0.08,-0.009926658
0.08,0.490638
0.08,0.760544
0.08,0.9406089
0.08,1.05621
0.08,1.13138
0.08,1.19139
0.08,1.26532
0.08,1.33846
0.08,1.44924
0.08,1.5803
0.08,1.75239
0.08,1.93089
0.08,2.05891
0.08,2.14517
0.08,2.23224
0.08,2.328741
0.08,2.45203
0.08,2.61552
0.08,2.79686
0.08,2.971924
0.08,3.143478
0.08,3.314669
0.08,3.4775
0.08,3.62324
0.08,3.74903
0.08,3.85998
0.08,3.970275
0.08,4.084695
0.08,4.202368
0.08,4.32461
0.08,4.44382
0.08,4.555436
0.08,4.653846
0.08,4.73874
0.08,4.81347
0.08,4.8791
0.08,4.93728
0.08,4.98968
0.08,5.03716
0.08,5.08178
0.08,5.12309
0.08,5.15551
0.08,5.185166
0.08,5.20944
0.08,5.22841
0.08,5.24354
0.08,5.25438
0.08,5.262127
0.08,5.268653
0.08,5.2735
0.08,5.27827
0.08,5.28272
0.08,5.286705
0.08,5.29045
0.08,5.293785
0.08,5.2968
0.08,5.29955
0.08,5.302429
0.08,5.303231