File: charging_cycle_197.csv
control/mA,Ewe/V
-0.08,-5.41237
-0.08,-5.43088
-0.08,-5.44475
-0.08,-5.45727
-0.08,-5.469312
-0.08,-5.480895
-0.08,-5.49191
-0.08,-5.502306
-0.08,-5.511008
-0.08,-5.517763
0.08,-4.73026
0.08,-3.728758
0.08,-2.72863
0.08,-1.72852
0.08,-0.728448
0.08,0.2715687
0.08,0.834566
0.08,0.993659
0.08,1.073272
0.08,1.15338
0.08,1.24521
0.08,1.34827
0.08,1.46865
0.08,1.61911
0.08,1.80964
0.08,1.99254
0.08,2.1121
0.08,2.19663
0.08,2.2718
0.08,2.34607
0.08,2.42683
0.08,2.51795
0.08,2.62479
0.08,2.750431
0.08,2.88783
0.08,3.04331
0.08,3.20706
0.08,3.37201
0.08,3.54723
0.08,3.71548
0.08,3.87412
0.08,4.0226
0.08,4.1662
0.08,4.307552
0.08,4.455
0.08,4.603563
0.08,4.73993
0.08,4.86278
0.08,4.96675
0.08,5.04842
0.08,5.11553
0.08,5.17482
0.08,5.22814
0.08,5.274893
0.08,5.31344
0.08,5.343705
0.08,5.368036
0.08,5.388168
0.08,5.404503
0.08,5.41683
0.08,5.427
0.08,5.434673
0.08,5.441294
0.08,5.447897
0.08,5.453908
0.08,5.45916
0.08,5.46448
0.08,5.46791
0.08,5.470758
0.08,5.47436
0.08,5.478353
0.08,5.4819
0.08,5.48604
0.08,5.48871
0.08,5.491291