File: charging_cycle_249.csv
control/mA,Ewe/V
-0.08,-6.4778
-0.08,-6.547014
-0.08,-6.609491
-0.08,-6.6859
-0.08,-6.752993
-0.08,-6.81236
-0.08,-6.869493
-0.08,-6.92638
-0.08,-6.98655
-0.08,-7.02175
0.08,-5.92753
0.08,-4.84714
0.08,-3.841657
0.08,-2.841488
0.08,-1.84134
0.08,-0.841342
0.08,0.05434395
0.08,0.473311
0.08,0.7311379
0.08,0.857923
0.08,0.947078
0.08,1.03806
0.08,1.13699
0.08,1.2442
0.08,1.3657
0.08,1.5037
0.08,1.68268
0.08,1.90629
0.08,2.12294
0.08,2.288152
0.08,2.430471
0.08,2.57983
0.08,2.75192
0.08,2.940266
0.08,3.13718
0.08,3.336
0.08,3.53542
0.08,3.7193
0.08,3.90335
0.08,4.07813
0.08,4.256601
0.08,4.4385
0.08,4.60761
0.08,4.75092
0.08,4.866065
0.08,4.959055
0.08,5.0409
0.08,5.11467
0.08,5.178392
0.08,5.2432
0.08,5.303002
0.08,5.359754
0.08,5.41341
0.08,5.464079
0.08,5.51171
0.08,5.553577
0.08,5.592811
0.08,5.629927
0.08,5.661108
0.08,5.68626
0.08,5.710246
0.08,5.73152
0.08,5.75066
0.08,5.765567
0.08,5.78228
0.08,5.79568
0.08,5.80742
0.08,5.81854
0.08,5.82839
0.08,5.836841
0.08,5.844856
0.08,5.849
0.08,5.857565
0.08,5.863309
0.08,5.86741
0.08,5.870255