File: charging_cycle_245.csv
control/mA,Ewe/V
-0.08,-6.394772
-0.08,-6.452001
-0.08,-6.50433
-0.08,-6.566154
-0.08,-6.627734
-0.08,-6.688379
-0.08,-6.74948
-0.08,-6.80099
-0.08,-6.845964
-0.08,-6.871325
0.08,-5.788543
0.08,-4.75307
0.08,-3.752674
0.08,-2.75256
0.08,-1.75243
0.08,-0.7523972
0.08,0.1501583
0.08,0.54657
0.08,0.7741503
0.08,0.8906694
0.08,0.9805872
0.08,1.0736
0.08,1.17241
0.08,1.283659
0.08,1.400846
0.08,1.54408
0.08,1.72619
0.08,1.94837
0.08,2.149633
0.08,2.30548
0.08,2.44383
0.08,2.592884
0.08,2.76402
0.08,2.95492
0.08,3.14865
0.08,3.34898
0.08,3.549806
0.08,3.74008
0.08,3.91753
0.08,4.088645
0.08,4.258986
0.08,4.42848
0.08,4.59013
0.08,4.73302
0.08,4.85143
0.08,4.948731
0.08,5.034317
0.08,5.109637
0.08,5.17969
0.08,5.24406
0.08,5.30512
0.08,5.36193
0.08,5.41546
0.08,5.464995
0.08,5.509973
0.08,5.549856
0.08,5.58693
0.08,5.61804
0.08,5.64672
0.08,5.67136
0.08,5.694503
0.08,5.713681
0.08,5.731409
0.08,5.747935
0.08,5.760873
0.08,5.773448
0.08,5.78509
0.08,5.79536
0.08,5.804057
0.08,5.81156
0.08,5.817873
0.08,5.82453
0.08,5.830143
0.08,5.835505
0.08,5.818674
0.08,5.83604