File: charging_cycle_24.csv
control/mA,Ewe/V
-0.01,-2.11492
-0.01,-2.12835
-0.01,-2.140869
-0.01,-2.15373
-0.01,-2.16718
-0.01,-2.17957
-0.01,-2.19195
-0.01,-2.20423
-0.01,-2.21673
-0.01,-2.22887
0.01,-0.9264487
0.01,0.112915
0.01,1.112945
0.01,1.17382
0.01,1.20947
0.01,1.23996
0.01,1.26572
0.01,1.28843
0.01,1.309039
0.01,1.3282
0.01,1.34553
0.01,1.3619
0.01,1.37749
0.01,1.39199
0.01,1.40632
0.01,1.419986
0.01,1.432905
0.01,1.44649
0.01,1.45886
0.01,1.47151
0.01,1.48468
0.01,1.49729
0.01,1.51029
0.01,1.52294
0.01,1.53553
0.01,1.54883
0.01,1.56154
0.01,1.57465
0.01,1.5881
0.01,1.60131
0.01,1.614248
0.01,1.62764
0.01,1.640754
0.01,1.65329
0.01,1.66631
0.01,1.67909
0.01,1.69232
0.01,1.70539
0.01,1.71842
0.01,1.73159
0.01,1.74466
0.01,1.75762
0.01,1.77082
0.01,1.78366
0.01,1.79714
0.01,1.80985
0.01,1.8232
0.01,1.835684
0.01,1.84885
0.01,1.8619
0.01,1.87459
0.01,1.88744
0.01,1.90001
0.01,1.91234
0.01,1.924743
0.01,1.93663
0.01,1.94877
0.01,1.96167
0.01,1.97369
0.01,1.98567
0.01,1.99745
0.01,2.00896
0.01,2.0196