File: charging_cycle_98.csv
control/mA,Ewe/V
-0.01,-0.6551646
-0.01,-0.6585804
-0.01,-0.66503
-0.01,-0.670164
-0.01,-0.674629
-0.01,-0.680163
-0.01,-0.685697
-0.01,-0.6891127
-0.01,-0.694838
-0.01,-0.7008677
0.01,-0.390936
0.01,0.217068
0.01,0.267943
0.01,0.2975975
0.01,0.318111
0.01,0.335076
0.01,0.350857
0.01,0.365341
0.01,0.3780884
0.01,0.3904922
0.01,0.402591
0.01,0.4131243
0.01,0.4238297
0.01,0.4336764
0.01,0.443504
0.01,0.4525683
0.01,0.461785
0.01,0.470697
0.01,0.478635
0.01,0.4866882
0.01,0.493921
0.01,0.501554
0.01,0.509187
0.01,0.515789
0.01,0.5223538
0.01,0.5295289
0.01,0.536017
0.01,0.5423716
0.01,0.549012
0.01,0.555882
0.01,0.562981
0.01,0.569335
0.01,0.5760144
0.01,0.58214
0.01,0.5888571
0.01,0.594906
0.01,0.6016425
0.01,0.607825
0.01,0.614333
0.01,0.6207634
0.01,0.627232
0.01,0.6336824
0.01,0.640915
0.01,0.646907
0.01,0.6532422
0.01,0.660246
0.01,0.6676115
0.01,0.6737561
0.01,0.6806259
0.01,0.6873812
0.01,0.6945372
0.01,0.7021321
0.01,0.7093263
0.01,0.717017
0.01,0.7246688
0.01,0.7314241
0.01,0.738905
0.01,0.7470338
0.01,0.7539417
0.01,0.7612886
0.01,0.768139