File: charging_cycle_120.csv
control/mA,Ewe/V
-0.02,-1.8002
-0.02,-1.84406
-0.02,-1.88541
-0.02,-1.92537
-0.02,-1.96599
-0.02,-2.005038
-0.02,-2.04318
-0.02,-2.07992
-0.02,-2.11625
-0.02,-2.133789
0.02,-1.43166
0.02,-0.431655
0.02,0.411884
0.02,0.483769
0.02,0.516763
0.02,0.5425242
0.02,0.567026
0.02,0.5902692
0.02,0.6143134
0.02,0.6391973
0.02,0.6648636
0.02,0.6918275
0.02,0.7204134
0.02,0.7481215
0.02,0.775868
0.02,0.8004845
0.02,0.823842
0.02,0.845863
0.02,0.8673694
0.02,0.889124
0.02,0.9107444
0.02,0.9341017
0.02,0.9600542
0.02,0.986255
0.02,1.01578
0.02,1.04705
0.02,1.08035
0.02,1.114567
0.02,1.15222
0.02,1.19054
0.02,1.232212
0.02,1.27944
0.02,1.32644
0.02,1.37758
0.02,1.43142
0.02,1.49069
0.02,1.54975
0.02,1.609859
0.02,1.67993
0.02,1.75004
0.02,1.82088
0.02,1.89341
0.02,1.96642
0.02,2.031568
0.02,2.100972
0.02,2.16364
0.02,2.22503
0.02,2.280977
0.02,2.33532
0.02,2.38599
0.02,2.435051
0.02,2.48379
0.02,2.53167
0.02,2.57827
0.02,2.62365
0.02,2.66981
0.02,2.71326
0.02,2.75669
0.02,2.79934
0.02,2.83892
0.02,2.87838
0.02,2.91824