File: charging_cycle_161.csv
control/mA,Ewe/V
-0.04,-3.60242
-0.04,-3.65249
-0.04,-3.69829
-0.04,-3.74333
-0.04,-3.78657
-0.04,-3.82729
-0.04,-3.865075
-0.04,-3.90263
-0.04,-3.93755
-0.04,-3.96946
0.04,-3.302069
0.04,-2.301752
0.04,-1.30175
0.04,-0.301721
0.04,0.5814148
0.04,0.789894
0.04,0.8805365
0.04,0.955627
0.04,1.03522
0.04,1.113861
0.04,1.18985
0.04,1.270034
0.04,1.36005
0.04,1.46328
0.04,1.57988
0.04,1.706265
0.04,1.83221
0.04,1.94493
0.04,2.03122
0.04,2.09187
0.04,2.14385
0.04,2.1894
0.04,2.231381
0.04,2.27237
0.04,2.3133
0.04,2.35488
0.04,2.397477
0.04,2.445432
0.04,2.4947
0.04,2.54747
0.04,2.61267
0.04,2.678222
0.04,2.75051
0.04,2.8309
0.04,2.91372
0.04,3.00152
0.04,3.09167
0.04,3.188017
0.04,3.28814
0.04,3.39083
0.04,3.495096
0.04,3.603047
0.04,3.71871
0.04,3.847592
0.04,3.97959
0.04,4.10139
0.04,4.20555
0.04,4.28994
0.04,4.359323
0.04,4.419014
0.04,4.46716
0.04,4.51076
0.04,4.54897
0.04,4.584652
0.04,4.611139
0.04,4.63848
0.04,4.665963
0.04,4.69316
0.04,4.71924
0.04,4.744813
0.04,4.768056
0.04,4.79153
0.04,4.811832
0.04,4.817442