File: charging_cycle_221.csv
control/mA,Ewe/V
-0.08,-6.564017
-0.08,-6.61676
-0.08,-6.67265
-0.08,-6.72061
-0.08,-6.765645
-0.08,-6.80877
-0.08,-6.85159
-0.08,-6.894167
-0.08,-6.936359
-0.08,-6.962579
0.08,-5.80257
0.08,-4.72605
0.08,-3.72355
0.08,-2.72317
0.08,-1.72314
0.08,-0.723067
0.08,0.276988
0.08,0.7072654
0.08,0.9689277
0.08,1.08171
0.08,1.15063
0.08,1.21635
0.08,1.29171
0.08,1.386
0.08,1.49746
0.08,1.64333
0.08,1.83
0.08,2.0235
0.08,2.19591
0.08,2.339847
0.08,2.469953
0.08,2.60494
0.08,2.753904
0.08,2.92198
0.08,3.09999
0.08,3.2928
0.08,3.49769
0.08,3.69436
0.08,3.87719
0.08,4.045633
0.08,4.205154
0.08,4.360602
0.08,4.513607
0.08,4.662338
0.08,4.80027
0.08,4.921424
0.08,5.02485
0.08,5.11254
0.08,5.189994
0.08,5.254513
0.08,5.32256
0.08,5.38063
0.08,5.434005
0.08,5.478964
0.08,5.521461
0.08,5.555848
0.08,5.58732
0.08,5.613936
0.08,5.63489
0.08,5.65536
0.08,5.67157
0.08,5.68905
0.08,5.70412
0.08,5.71742
0.08,5.729501
0.08,5.74007
0.08,5.751484
0.08,5.762571
0.08,5.77146
0.08,5.779841
0.08,5.78728
0.08,5.79425
0.08,5.801309
0.08,5.807339
0.08,5.813503
0.08,5.817835