File: charging_cycle_83.csv
control/mA,Ewe/V
-0.01,-0.603126
-0.01,-0.6073433
-0.01,-0.609137
-0.01,-0.614614
-0.01,-0.6189456
-0.01,-0.6234873
-0.01,-0.627361
-0.01,-0.6319218
-0.01,-0.6352041
-0.01,-0.639002
0.01,-0.3473321
0.01,0.210027
0.01,0.260024
0.01,0.290212
0.01,0.3123866
0.01,0.328855
0.01,0.344083
0.01,0.356678
0.01,0.368814
0.01,0.37992
0.01,0.390015
0.01,0.399728
0.01,0.408525
0.01,0.4173034
0.01,0.425948
0.01,0.4340771
0.01,0.4417102
0.01,0.449095
0.01,0.4563276
0.01,0.463579
0.01,0.470277
0.01,0.4767652
0.01,0.483177
0.01,0.489646
0.01,0.495333
0.01,0.501554
0.01,0.5070686
0.01,0.512851
0.01,0.5191097
0.01,0.524281
0.01,0.530235
0.01,0.5360552
0.01,0.5419327
0.01,0.5474667
0.01,0.552848
0.01,0.5584965
0.01,0.5640686
0.01,0.56945
0.01,0.5746023
0.01,0.580289
0.01,0.585708
0.01,0.591357
0.01,0.5967192
0.01,0.601948
0.01,0.607482
0.01,0.6126151
0.01,0.6181109
0.01,0.6241029
0.01,0.629312
0.01,0.6348274
0.01,0.639903
0.01,0.645208
0.01,0.650208
0.01,0.655818
0.01,0.6608562
0.01,0.6664856
0.01,0.6717906
0.01,0.6759125
0.01,0.681198
0.01,0.6861599
0.01,0.691961