File: charging_cycle_113.csv
control/mA,Ewe/V
-0.02,-1.53808
-0.02,-1.57274
-0.02,-1.60838
-0.02,-1.64403
-0.02,-1.67914
-0.02,-1.713435
-0.02,-1.74794
-0.02,-1.78169
-0.02,-1.81654
-0.02,-1.83142
0.02,-1.14968
0.02,-0.149631
0.02,0.4351839
0.02,0.487432
0.02,0.5227927
0.02,0.5515504
0.02,0.5762816
0.02,0.5992381
0.02,0.622481
0.02,0.646105
0.02,0.671237
0.02,0.697438
0.02,0.7243635
0.02,0.7513846
0.02,0.777528
0.02,0.8016485
0.02,0.8232502
0.02,0.844203
0.02,0.865003
0.02,0.8862995
0.02,0.907539
0.02,0.930629
0.02,0.9546538
0.02,0.97845
0.02,1.00803
0.02,1.0374
0.02,1.06814
0.02,1.10102
0.02,1.136932
0.02,1.17485
0.02,1.2159
0.02,1.2591
0.02,1.30539
0.02,1.35711
0.02,1.40875
0.02,1.46258
0.02,1.52261
0.02,1.57996
0.02,1.64484
0.02,1.71197
0.02,1.7783
0.02,1.8458
0.02,1.91356
0.02,1.97806
0.02,2.04069
0.02,2.100743
0.02,2.15505
0.02,2.20457
0.02,2.25296
0.02,2.29979
0.02,2.329886
0.02,2.37633
0.02,2.42047
0.02,2.462759
0.02,2.50423
0.02,2.54478
0.02,2.585041
0.02,2.62428
0.02,2.66328
0.02,2.70299
0.02,2.74007
0.02,2.77699