File: charging_cycle_160.csv
control/mA,Ewe/V
-0.04,-3.46938
-0.04,-3.507961
-0.04,-3.5446
-0.04,-3.577575
-0.04,-3.613584
-0.04,-3.647284
-0.04,-3.68056
-0.04,-3.71384
-0.04,-3.74745
-0.04,-3.77827
0.04,-3.11162
0.04,-2.11144
0.04,-1.11134
0.04,-0.111237
0.04,0.621565
0.04,0.7900653
0.04,0.8779222
0.04,0.954978
0.04,1.03572
0.04,1.11453
0.04,1.19029
0.04,1.27087
0.04,1.36363
0.04,1.467273
0.04,1.58076
0.04,1.70598
0.04,1.83286
0.04,1.94554
0.04,2.03481
0.04,2.09952
0.04,2.1507
0.04,2.19215
0.04,2.23608
0.04,2.27533
0.04,2.316738
0.04,2.35885
0.04,2.40335
0.04,2.451443
0.04,2.50335
0.04,2.55934
0.04,2.619657
0.04,2.68503
0.04,2.76184
0.04,2.84119
0.04,2.92628
0.04,3.01589
0.04,3.1093
0.04,3.207214
0.04,3.30746
0.04,3.40913
0.04,3.51674
0.04,3.62814
0.04,3.74972
0.04,3.880815
0.04,4.01136
0.04,4.12744
0.04,4.22145
0.04,4.30007
0.04,4.366575
0.04,4.418632
0.04,4.46283
0.04,4.503436
0.04,4.53986
0.04,4.571981
0.04,4.60377
0.04,4.63324
0.04,4.66274
0.04,4.6909
0.04,4.715636
0.04,4.741798
0.04,4.767216
0.04,4.790917
0.04,4.81353
0.04,4.81664