File: charging_cycle_57.csv
control/mA,Ewe/V
-0.01,-0.525345
-0.01,-0.527921
-0.01,-0.5307262
-0.01,-0.533379
-0.01,-0.5358976
-0.01,-0.5390081
-0.01,-0.541241
-0.01,-0.543645
-0.01,-0.5463358
-0.01,-0.5488357
0.01,-0.2878574
0.01,0.203539
0.01,0.2504441
0.01,0.279526
0.01,0.300708
0.01,0.317997
0.01,0.332595
0.01,0.3456287
0.01,0.357842
0.01,0.368891
0.01,0.378852
0.01,0.388126
0.01,0.396541
0.01,0.404785
0.01,0.412781
0.01,0.420128
0.01,0.426883
0.01,0.433505
0.01,0.439783
0.01,0.446042
0.01,0.452091
0.01,0.4576252
0.01,0.463426
0.01,0.468808
0.01,0.4740936
0.01,0.479131
0.01,0.483826
0.01,0.488692
0.01,0.493577
0.01,0.498214
0.01,0.502737
0.01,0.507488
0.01,0.5117247
0.01,0.5159611
0.01,0.520026
0.01,0.524472
0.01,0.5284221
0.01,0.532487
0.01,0.5361124
0.01,0.539872
0.01,0.54386
0.01,0.547791
0.01,0.551875
0.01,0.5552906
0.01,0.5593361
0.01,0.5630763
0.01,0.566588
0.01,0.570042
0.01,0.573457
0.01,0.576969
0.01,0.5805561
0.01,0.583953
0.01,0.587273
0.01,0.5900402
0.01,0.5928263
0.01,0.5961467
0.01,0.5991809
0.01,0.6021959
0.01,0.605249
0.01,0.6081879
0.01,0.611203