File: charging_cycle_234.csv
control/mA,Ewe/V
-0.08,-6.446372
-0.08,-6.504078
-0.08,-6.56539
-0.08,-6.62896
-0.08,-6.685478
-0.08,-6.73599
-0.08,-6.782266
-0.08,-6.826118
-0.08,-6.87209
-0.08,-6.89774
0.08,-5.763535
0.08,-4.6817
0.08,-3.67905
0.08,-2.67814
0.08,-1.67812
0.08,-0.6780509
0.08,0.193094
0.08,0.5977306
0.08,0.8234792
0.08,0.9327087
0.08,1.0195
0.08,1.11056
0.08,1.2051
0.08,1.3099
0.08,1.42796
0.08,1.57104
0.08,1.76183
0.08,1.97539
0.08,2.16263
0.08,2.30998
0.08,2.44284
0.08,2.58704
0.08,2.7494
0.08,2.91847
0.08,3.10463
0.08,3.28996
0.08,3.48922
0.08,3.68478
0.08,3.86958
0.08,4.04277
0.08,4.2121
0.08,4.37854
0.08,4.536449
0.08,4.68262
0.08,4.80643
0.08,4.91644
0.08,5.01043
0.08,5.092233
0.08,5.164786
0.08,5.23095
0.08,5.29258
0.08,5.34964
0.08,5.40185
0.08,5.4515
0.08,5.49667
0.08,5.53791
0.08,5.575637
0.08,5.60831
0.08,5.63575
0.08,5.661967
0.08,5.682042
0.08,5.70311
0.08,5.721047
0.08,5.736237
0.08,5.749118
0.08,5.76099
0.08,5.770834
0.08,5.7806
0.08,5.789153
0.08,5.797645
0.08,5.80535
0.08,5.812
0.08,5.818846
0.08,5.82362
0.08,5.82959
0.08,5.832032