File: charging_cycle_9.csv
control/mA,Ewe/V
-0.01,-1.87388
-0.01,-1.88434
-0.01,-1.89478
-0.01,-1.90569
-0.01,-1.916
-0.01,-1.92594
-0.01,-1.936035
-0.01,-1.94632
-0.01,-1.95619
-0.01,-1.96636
0.01,-0.7024969
0.01,0.310669
0.01,1.015146
0.01,1.05871
0.01,1.08682
0.01,1.10911
0.01,1.12804
0.01,1.14506
0.01,1.16109
0.01,1.17508
0.01,1.1888
0.01,1.20105
0.01,1.21286
0.01,1.22404
0.01,1.23458
0.01,1.24475
0.01,1.255
0.01,1.26448
0.01,1.27448
0.01,1.28395
0.01,1.29387
0.01,1.30343
0.01,1.31278
0.01,1.32211
0.01,1.332
0.01,1.34165
0.01,1.351479
0.01,1.36157
0.01,1.37136
0.01,1.38056
0.01,1.39037
0.01,1.40045
0.01,1.41035
0.01,1.42008
0.01,1.42941
0.01,1.4389
0.01,1.44815
0.01,1.45735
0.01,1.46655
0.01,1.47563
0.01,1.48466
0.01,1.493588
0.01,1.50282
0.01,1.51246
0.01,1.52124
0.01,1.52985
0.01,1.5387
0.01,1.54746
0.01,1.55666
0.01,1.565
0.01,1.57442
0.01,1.58291
0.01,1.59135
0.01,1.59952
0.01,1.60808
0.01,1.61703
0.01,1.62541
0.01,1.634056
0.01,1.64241
0.01,1.65031
0.01,1.65896
0.01,1.66726