File: charging_cycle_208.csv
control/mA,Ewe/V
-0.08,-5.980538
-0.08,-6.00849
-0.08,-6.0316
-0.08,-6.053816
-0.08,-6.076028
-0.08,-6.09679
-0.08,-6.117972
-0.08,-6.137589
-0.08,-6.15621
-0.08,-6.16837
0.08,-5.03092
0.08,-4.013478
0.08,-3.01329
0.08,-2.01324
0.08,-1.01324
0.08,-0.013228
0.08,0.672821
0.08,0.9858922
0.08,1.08148
0.08,1.14855
0.08,1.216507
0.08,1.29784
0.08,1.39443
0.08,1.512499
0.08,1.6722
0.08,1.86295
0.08,2.06897
0.08,2.23705
0.08,2.36738
0.08,2.48268
0.08,2.59947
0.08,2.72612
0.08,2.87699
0.08,3.049152
0.08,3.23815
0.08,3.43707
0.08,3.64192
0.08,3.84213
0.08,4.02894
0.08,4.19935
0.08,4.35715
0.08,4.513912
0.08,4.67087
0.08,4.8288
0.08,4.977546
0.08,5.106316
0.08,5.212836
0.08,5.299128
0.08,5.371509
0.08,5.431944
0.08,5.481349
0.08,5.52282
0.08,5.55774
0.08,5.58567
0.08,5.60907
0.08,5.629545
0.08,5.64682
0.08,5.66212
0.08,5.67552
0.08,5.68607
0.08,5.69696
0.08,5.70654
0.08,5.715952
0.08,5.724711
0.08,5.73347
0.08,5.741599
0.08,5.747572
0.08,5.75408
0.08,5.760529
0.08,5.76635
0.08,5.77307
0.08,5.778677
0.08,5.78419
0.08,5.789802
0.08,5.79423