File: charging_cycle_232.csv
control/mA,Ewe/V
-0.08,-6.4304
-0.08,-6.48208
-0.08,-6.535412
-0.08,-6.58814
-0.08,-6.642447
-0.08,-6.694772
-0.08,-6.744196
-0.08,-6.789193
-0.08,-6.83364
-0.08,-6.858654
0.08,-5.758004
0.08,-4.69528
0.08,-3.69107
0.08,-2.69104
0.08,-1.691
0.08,-0.6909126
0.08,0.127164
0.08,0.548497
0.08,0.796687
0.08,0.9152861
0.08,1.00551
0.08,1.09817
0.08,1.19475
0.08,1.29845
0.08,1.416074
0.08,1.55397
0.08,1.74334
0.08,1.95434
0.08,2.13782
0.08,2.28111
0.08,2.40875
0.08,2.54543
0.08,2.70488
0.08,2.88372
0.08,3.0677
0.08,3.259749
0.08,3.459545
0.08,3.65253
0.08,3.837879
0.08,4.003097
0.08,4.16788
0.08,4.327989
0.08,4.489467
0.08,4.64406
0.08,4.7763
0.08,4.88566
0.08,4.97757
0.08,5.052522
0.08,5.124063
0.08,5.188277
0.08,5.247261
0.08,5.303326
0.08,5.35828
0.08,5.408148
0.08,5.45376
0.08,5.496711
0.08,5.53543
0.08,5.56892
0.08,5.59754
0.08,5.62287
0.08,5.6454
0.08,5.6655
0.08,5.683187
0.08,5.69929
0.08,5.71303
0.08,5.726238
0.08,5.737935
0.08,5.74835
0.08,5.75738
0.08,5.76583
0.08,5.77328
0.08,5.779841
0.08,5.78547
0.08,5.790718
0.08,5.795546
0.08,5.79799