File: charging_cycle_58.csv
control/mA,Ewe/V
-0.01,-0.5263753
-0.01,-0.5294476
-0.01,-0.5321192
-0.01,-0.535478
-0.01,-0.5378822
-0.01,-0.541012
-0.01,-0.5433017
-0.01,-0.5461641
-0.01,-0.549103
-0.01,-0.5517744
0.01,-0.28906
0.01,0.204665
0.01,0.251513
0.01,0.2798124
0.01,0.300899
0.01,0.318131
0.01,0.333015
0.01,0.346163
0.01,0.35767
0.01,0.368375
0.01,0.378394
0.01,0.387687
0.01,0.3961216
0.01,0.403774
0.01,0.411712
0.01,0.419154
0.01,0.4260433
0.01,0.432875
0.01,0.439363
0.01,0.445641
0.01,0.451519
0.01,0.457339
0.01,0.462949
0.01,0.468426
0.01,0.4738837
0.01,0.478693
0.01,0.4836922
0.01,0.488272
0.01,0.493367
0.01,0.49789
0.01,0.502546
0.01,0.507145
0.01,0.511496
0.01,0.516018
0.01,0.5201593
0.01,0.5242239
0.01,0.528289
0.01,0.532353
0.01,0.536437
0.01,0.5405396
0.01,0.544299
0.01,0.548249
0.01,0.552237
0.01,0.55634
0.01,0.560233
0.01,0.5638778
0.01,0.567294
0.01,0.5709766
0.01,0.5749076
0.01,0.578228
0.01,0.5816629
0.01,0.585155
0.01,0.58838
0.01,0.592101
0.01,0.5951544
0.01,0.5982649
0.01,0.601356
0.01,0.60439
0.01,0.607692
0.01,0.6105923
0.01,0.6134929