File: charging_cycle_11.csv
control/mA,Ewe/V
-0.01,-1.92815
-0.01,-1.93928
-0.01,-1.95088
-0.01,-1.96195
-0.01,-1.97311
-0.01,-1.98359
-0.01,-1.99443
-0.01,-2.00462
-0.01,-2.01445
-0.01,-2.02473
0.01,-0.7531546
0.01,0.256245
0.01,1.03505
0.01,1.07938
0.01,1.11012
0.01,1.1338
0.01,1.15456
0.01,1.17307
0.01,1.18947
0.01,1.20506
0.01,1.21832
0.01,1.23141
0.01,1.24404
0.01,1.25565
0.01,1.26719
0.01,1.278106
0.01,1.28883
0.01,1.299555
0.01,1.3098
0.01,1.319878
0.01,1.33035
0.01,1.34024
0.01,1.35058
0.01,1.36089
0.01,1.37152
0.01,1.38173
0.01,1.39205
0.01,1.40191
0.01,1.41212
0.01,1.42258
0.01,1.43231
0.01,1.44252
0.01,1.45302
0.01,1.46302
0.01,1.47286
0.01,1.48239
0.01,1.49294
0.01,1.50246
0.01,1.51208
0.01,1.52219
0.01,1.53147
0.01,1.54093
0.01,1.55015
0.01,1.55967
0.01,1.569022
0.01,1.57736
0.01,1.585853
0.01,1.59511
0.01,1.60394
0.01,1.61223
0.01,1.62072
0.01,1.62978
0.01,1.63782
0.01,1.64718
0.01,1.65604
0.01,1.66386
0.01,1.67239
0.01,1.68096
0.01,1.68947
0.01,1.69815
0.01,1.706265
0.01,1.71497