File: charging_cycle_45.csv
control/mA,Ewe/V
-0.01,-0.458212
-0.01,-0.4603682
-0.01,-0.462906
-0.01,-0.4649862
-0.01,-0.467162
-0.01,-0.46949
-0.01,-0.47157
-0.01,-0.4736116
-0.01,-0.475787
-0.01,-0.477657
0.01,-0.230707
0.01,0.2174119
0.01,0.26134
0.01,0.2902316
0.01,0.3120622
0.01,0.33021
0.01,0.3456669
0.01,0.358968
0.01,0.371028
0.01,0.38179
0.01,0.391542
0.01,0.400396
0.01,0.40885
0.01,0.4165592
0.01,0.423792
0.01,0.430547
0.01,0.437092
0.01,0.443199
0.01,0.449
0.01,0.4544002
0.01,0.4599533
0.01,0.465067
0.01,0.4703534
0.01,0.4749523
0.01,0.47957
0.01,0.4841311
0.01,0.488635
0.01,0.49289
0.01,0.496897
0.01,0.500943
0.01,0.5047214
0.01,0.5086524
0.01,0.5121827
0.01,0.51577
0.01,0.519148
0.01,0.51827
0.01,0.5195677
0.01,0.521648
0.01,0.5240522
0.01,0.5263421
0.01,0.528823
0.01,0.5310937
0.01,0.5321051
0.01,0.533689
0.01,0.535769
0.01,0.5375246
0.01,0.5391466
0.01,0.5408259
0.01,0.5430395
0.01,0.545177
0.01,0.5473331
0.01,0.54926
0.01,0.5515122
0.01,0.5534205
0.01,0.5552143
0.01,0.557237
0.01,0.5591644
0.01,0.56092
0.01,0.562866
0.01,0.5644312
0.01,0.5662822