File: charging_cycle_153.csv
control/mA,Ewe/V
-0.04,-2.744
-0.04,-2.77497
-0.04,-2.80467
-0.04,-2.83257
-0.04,-2.8601
-0.04,-2.88638
-0.04,-2.9109
-0.04,-2.93533
-0.04,-2.95893
-0.04,-2.971584
0.04,-2.326428
0.04,-1.32629
0.04,-0.32628
0.04,0.382497
0.04,0.6243891
0.04,0.747816
0.04,0.839127
0.04,0.9236825
0.04,1.00156
0.04,1.07329
0.04,1.143
0.04,1.21532
0.04,1.29692
0.04,1.38961
0.04,1.49239
0.04,1.60415
0.04,1.721035
0.04,1.83515
0.04,1.93902
0.04,2.021817
0.04,2.08355
0.04,2.12941
0.04,2.167399
0.04,2.200219
0.04,2.23129
0.04,2.26247
0.04,2.29386
0.04,2.32742
0.04,2.363319
0.04,2.40248
0.04,2.44587
0.04,2.4926
0.04,2.54567
0.04,2.60462
0.04,2.67234
0.04,2.751
0.04,2.836933
0.04,2.92662
0.04,3.01742
0.04,3.109377
0.04,3.20239
0.04,3.29633
0.04,3.39665
0.04,3.50193
0.04,3.610203
0.04,3.72312
0.04,3.83404
0.04,3.93707
0.04,4.02676
0.04,4.102232
0.04,4.165205
0.04,4.219733
0.04,4.26649
0.04,4.30608
0.04,4.348713
0.04,4.38209
0.04,4.416266
0.04,4.4501
0.04,4.48115
0.04,4.51063
0.04,4.538949
0.04,4.56727
0.04,4.577725