File: charging_cycle_218.csv
control/mA,Ewe/V
-0.08,-6.550277
-0.08,-6.59115
-0.08,-6.634642
-0.08,-6.67634
-0.08,-6.714408
-0.08,-6.74988
-0.08,-6.78421
-0.08,-6.81927
-0.08,-6.851937
-0.08,-6.88182
0.08,-5.5387
0.08,-4.45915
0.08,-3.44885
0.08,-2.448403
0.08,-1.44815
0.08,-0.448066
0.08,0.5519702
0.08,0.952593
0.08,1.11739
0.08,1.17306
0.08,1.222308
0.08,1.28576
0.08,1.36436
0.08,1.45912
0.08,1.58698
0.08,1.75819
0.08,1.96173
0.08,2.158831
0.08,2.33368
0.08,2.483063
0.08,2.63225
0.08,2.78686
0.08,2.96036
0.08,3.15304
0.08,3.35636
0.08,3.57816
0.08,3.778875
0.08,3.98474
0.08,4.162667
0.08,4.33387
0.08,4.50286
0.08,4.663578
0.08,4.82353
0.08,4.968711
0.08,5.092176
0.08,5.2002
0.08,5.294262
0.08,5.37483
0.08,5.444691
0.08,5.511748
0.08,5.568347
0.08,5.61676
0.08,5.659391
0.08,5.6984
0.08,5.73223
0.08,5.76335
0.08,5.793752
0.08,5.81982
0.08,5.842451
0.08,5.8651
0.08,5.88518
0.08,5.90413
0.08,5.920213
0.08,5.93657
0.08,5.95069
0.08,5.962348
0.08,5.974809
0.08,5.987251
0.08,5.99744
0.08,6.00744
0.08,6.016314
0.08,6.023909
0.08,6.03179
0.08,6.03904
0.08,6.04564
0.08,6.04847