File: charging_cycle_271.csv
control/mA,Ewe/V
-0.16,-8.377851
-0.16,-8.530208
-0.16,-8.68615
-0.16,-8.844442
-0.16,-9.00926
-0.16,-9.175318
-0.16,-9.348455
-0.16,-9.53031
-0.16,-9.718546
-0.16,-9.850389
0.16,-8.158392
0.16,-6.720288
0.16,-5.64803
0.16,-4.51295
0.16,-3.47356
0.16,-2.4601
0.16,-1.44289
0.16,-0.442608
0.16,0.17363
0.16,0.2333269
0.16,0.27113
0.16,0.426444
0.16,0.684233
0.16,1.00438
0.16,1.25675
0.16,1.400388
0.16,1.5507
0.16,1.73863
0.16,1.95383
0.16,2.1948
0.16,2.41433
0.16,2.5863
0.16,2.76478
0.16,2.98834
0.16,3.24719
0.16,3.52112
0.16,3.79576
0.16,4.04258
0.16,4.265608
0.16,4.47798
0.16,4.69619
0.16,4.88473
0.16,5.0172
0.16,5.111736
0.16,5.18847
0.16,5.25407
0.16,5.315444
0.16,5.37143
0.16,5.421773
0.16,5.473716
0.16,5.52205
0.16,5.562985
0.16,5.60188
0.16,5.634125
0.16,5.664276
0.16,5.690362
0.16,5.71355
0.16,5.73171
0.16,5.748946
0.16,5.761388
0.16,5.773238
0.16,5.78299
0.16,5.790947
0.16,5.797416
0.16,5.803408
0.16,5.8089
0.16,5.8128
0.16,5.815392
0.16,5.819056
0.16,5.821804
0.16,5.823884
0.16,5.82589
0.16,5.82709
0.16,5.82753
0.16,5.828597
0.16,5.82965
0.16,5.8297
0.16,5.83005