File: charging_cycle_6.csv
control/mA,Ewe/V
-0.01,-1.74973
-0.01,-1.75878
-0.01,-1.76824
-0.01,-1.77715
-0.01,-1.78614
-0.01,-1.79562
-0.01,-1.80352
-0.01,-1.81288
-0.01,-1.82165
-0.01,-1.83001
0.01,-0.594288
0.01,0.414193
0.01,0.948719
0.01,0.993296
0.01,1.022989
0.01,1.04637
0.01,1.06549
0.01,1.08283
0.01,1.09833
0.01,1.11211
0.01,1.12558
0.01,1.138115
0.01,1.1496
0.01,1.16054
0.01,1.16779
0.01,1.17577
0.01,1.185402
0.01,1.19443
0.01,1.20324
0.01,1.21275
0.01,1.22181
0.01,1.23114
0.01,1.24019
0.01,1.24929
0.01,1.258508
0.01,1.26776
0.01,1.27748
0.01,1.28658
0.01,1.29572
0.01,1.30438
0.01,1.313409
0.01,1.32285
0.01,1.331633
0.01,1.34037
0.01,1.34927
0.01,1.35812
0.01,1.36655
0.01,1.37543
0.01,1.38363
0.01,1.39205
0.01,1.40024
0.01,1.40867
0.01,1.41684
0.01,1.42502
0.01,1.43319
0.01,1.440996
0.01,1.44916
0.01,1.45699
0.01,1.46546
0.01,1.47298
0.01,1.48132
0.01,1.489409
0.01,1.49742
0.01,1.505
0.01,1.51322
0.01,1.52082
0.01,1.5287
0.01,1.53662
0.01,1.54412
0.01,1.552
0.01,1.55942
0.01,1.56704