File: charging_cycle_48.csv
control/mA,Ewe/V
-0.01,-0.491339
-0.01,-0.49403
-0.01,-0.4965681
-0.01,-0.498724
-0.01,-0.501167
-0.01,-0.5035333
-0.01,-0.5061095
-0.01,-0.507999
-0.01,-0.510098
-0.01,-0.5121205
0.01,-0.2618072
0.01,0.200276
0.01,0.245196
0.01,0.2736296
0.01,0.295537
0.01,0.313341
0.01,0.328912
0.01,0.342518
0.01,0.3547121
0.01,0.365666
0.01,0.375379
0.01,0.3846147
0.01,0.393164
0.01,0.4008541
0.01,0.408659
0.01,0.4156623
0.01,0.422379
0.01,0.4288103
0.01,0.434802
0.01,0.44068
0.01,0.4462519
0.01,0.4515569
0.01,0.4567283
0.01,0.461633
0.01,0.466747
0.01,0.47125
0.01,0.4758492
0.01,0.4803718
0.01,0.484322
0.01,0.488635
0.01,0.4926229
0.01,0.496516
0.01,0.5005423
0.01,0.5040344
0.01,0.507736
0.01,0.511286
0.01,0.514683
0.01,0.518156
0.01,0.5212852
0.01,0.5246628
0.01,0.5279641
0.01,0.5312845
0.01,0.5342614
0.01,0.537086
0.01,0.5398527
0.01,0.542849
0.01,0.5457683
0.01,0.5485353
0.01,0.55115
0.01,0.553783
0.01,0.55571
0.01,0.5580385
0.01,0.559966
0.01,0.5622176
0.01,0.5642976
0.01,0.566778
0.01,0.568992
0.01,0.5711674
0.01,0.572904
0.01,0.5749076
0.01,0.57714