File: charging_cycle_225.csv
control/mA,Ewe/V
-0.08,-6.65985
-0.08,-6.717175
-0.08,-6.7748
-0.08,-6.831595
-0.08,-6.889721
-0.08,-6.94529
-0.08,-7.00185
-0.08,-7.05793
-0.08,-7.111939
-0.08,-7.14383
0.08,-6.034858
0.08,-4.911339
0.08,-3.90682
0.08,-2.906407
0.08,-1.90638
0.08,-0.9063566
0.08,0.09373069
0.08,0.535387
0.08,0.814358
0.08,0.9566193
0.08,1.04304
0.08,1.12006
0.08,1.19989
0.08,1.29137
0.08,1.39899
0.08,1.52235
0.08,1.6873
0.08,1.88709
0.08,2.079962
0.08,2.23527
0.08,2.362632
0.08,2.486727
0.08,2.622386
0.08,2.78268
0.08,2.95828
0.08,3.14426
0.08,3.341213
0.08,3.53881
0.08,3.726455
0.08,3.89675
0.08,4.05542
0.08,4.20878
0.08,4.367605
0.08,4.52187
0.08,4.664742
0.08,4.78933
0.08,4.89408
0.08,4.97993
0.08,5.0547
0.08,5.12481
0.08,5.18717
0.08,5.24566
0.08,5.29964
0.08,5.35025
0.08,5.397595
0.08,5.439577
0.08,5.478029
0.08,5.511824
0.08,5.538273
0.08,5.562966
0.08,5.584262
0.08,5.60281
0.08,5.6192
0.08,5.63361
0.08,5.64659
0.08,5.658
0.08,5.66832
0.08,5.677481
0.08,5.686183
0.08,5.69418
0.08,5.70143
0.08,5.70887
0.08,5.71563
0.08,5.72185
0.08,5.72754
0.08,5.732554