File: charging_cycle_117.csv
control/mA,Ewe/V
-0.02,-1.66094
-0.02,-1.69968
-0.02,-1.736964
-0.02,-1.7737
-0.02,-1.81005
-0.02,-1.8472
-0.02,-1.88331
-0.02,-1.92071
-0.02,-1.9558
-0.02,-1.971777
0.02,-1.28169
0.02,-0.281569
0.02,0.426062
0.02,0.4856959
0.02,0.518938
0.02,0.546035
0.02,0.5707667
0.02,0.594029
0.02,0.6164889
0.02,0.6408194
0.02,0.665818
0.02,0.6922854
0.02,0.719803
0.02,0.7475681
0.02,0.774112
0.02,0.797431
0.02,0.8200443
0.02,0.8411688
0.02,0.86258
0.02,0.8840859
0.02,0.9053822
0.02,0.9285104
0.02,0.9529745
0.02,0.979881
0.02,1.00778
0.02,1.03898
0.02,1.06988
0.02,1.10459
0.02,1.14165
0.02,1.18122
0.02,1.22153
0.02,1.26668
0.02,1.31356
0.02,1.36419
0.02,1.41646
0.02,1.47338
0.02,1.53334
0.02,1.596921
0.02,1.66365
0.02,1.73289
0.02,1.80149
0.02,1.87291
0.02,1.94423
0.02,2.013764
0.02,2.07855
0.02,2.140416
0.02,2.19959
0.02,2.25485
0.02,2.30571
0.02,2.3558
0.02,2.40204
0.02,2.449172
0.02,2.476174
0.02,2.528041
0.02,2.57479
0.02,2.61926
0.02,2.66191
0.02,2.7069
0.02,2.74898
0.02,2.78497
0.02,2.82619
0.02,2.865