File: charging_cycle_111.csv
control/mA,Ewe/V
-0.02,-1.49003
-0.02,-1.52326
-0.02,-1.55972
-0.02,-1.593233
-0.02,-1.62842
-0.02,-1.66168
-0.02,-1.69515
-0.02,-1.72946
-0.02,-1.76168
-0.02,-1.77574
0.02,-1.09958
0.02,-0.0994437
0.02,0.438161
0.02,0.4915161
0.02,0.5277733
0.02,0.557237
0.02,0.582274
0.02,0.6048293
0.02,0.6262974
0.02,0.6501126
0.02,0.6745767
0.02,0.700491
0.02,0.727474
0.02,0.7548
0.02,0.779646
0.02,0.803061
0.02,0.823727
0.02,0.8445656
0.02,0.8638391
0.02,0.8842004
0.02,0.906031
0.02,0.9280525
0.02,0.9525738
0.02,0.978202
0.02,1.00583
0.02,1.0349
0.02,1.06556
0.02,1.09758
0.02,1.132333
0.02,1.168781
0.02,1.20761
0.02,1.246772
0.02,1.29099
0.02,1.33822
0.02,1.38823
0.02,1.44206
0.02,1.49731
0.02,1.55479
0.02,1.61408
0.02,1.67524
0.02,1.73724
0.02,1.79712
0.02,1.8615
0.02,1.92154
0.02,1.98342
0.02,2.03974
0.02,2.09435
0.02,2.14637
0.02,2.19453
0.02,2.239205
0.02,2.28184
0.02,2.324829
0.02,2.36538
0.02,2.406236
0.02,2.44383
0.02,2.482147
0.02,2.52111
0.02,2.558993
0.02,2.59693
0.02,2.63405
0.02,2.67112
0.02,2.70601