File: charging_cycle_53.csv
control/mA,Ewe/V
-0.01,-0.515918
-0.01,-0.5190285
-0.01,-0.5213184
-0.01,-0.5238182
-0.01,-0.5263753
-0.01,-0.5289324
-0.01,-0.531146
-0.01,-0.533512
-0.01,-0.5358022
-0.01,-0.5381303
0.01,-0.281766
0.01,0.1997413
0.01,0.246036
0.01,0.274145
0.01,0.294888
0.01,0.311986
0.01,0.3265269
0.01,0.33956
0.01,0.3513726
0.01,0.362135
0.01,0.371677
0.01,0.3807791
0.01,0.388832
0.01,0.3967895
0.01,0.404155
0.01,0.411235
0.01,0.4179713
0.01,0.424669
0.01,0.430814
0.01,0.436806
0.01,0.4423972
0.01,0.447779
0.01,0.453198
0.01,0.458427
0.01,0.463503
0.01,0.468617
0.01,0.473597
0.01,0.47812
0.01,0.482643
0.01,0.4870126
0.01,0.4916306
0.01,0.4955998
0.01,0.4994736
0.01,0.5036909
0.01,0.507507
0.01,0.5114385
0.01,0.5151024
0.01,0.519033
0.01,0.5227927
0.01,0.5266856
0.01,0.530598
0.01,0.5340897
0.01,0.53762
0.01,0.5412648
0.01,0.5446806
0.01,0.5478674
0.01,0.5513214
0.01,0.5543937
0.01,0.5575423
0.01,0.5607101
0.01,0.563859
0.01,0.5667402
0.01,0.5698698
0.01,0.57237
0.01,0.5753847
0.01,0.5781708
0.01,0.580976
0.01,0.5838574
0.01,0.5864145
0.01,0.589468
0.01,0.5917386