File: charging_cycle_250.csv
control/mA,Ewe/V
-0.08,-6.520413
-0.08,-6.58835
-0.08,-6.656816
-0.08,-6.72513
-0.08,-6.79599
-0.08,-6.864455
-0.08,-6.923173
-0.08,-6.98256
-0.08,-7.041524
-0.08,-7.080319
0.08,-5.9656
0.08,-4.965152
0.08,-3.964855
0.08,-2.96142
0.08,-1.9613
0.08,-0.9612766
0.08,-0.00694975
0.08,0.405758
0.08,0.693888
0.08,0.831971
0.08,0.9181485
0.08,1.00746
0.08,1.10468
0.08,1.20571
0.08,1.32377
0.08,1.45433
0.08,1.61324
0.08,1.82538
0.08,2.06097
0.08,2.2469
0.08,2.39152
0.08,2.53836
0.08,2.70526
0.08,2.88659
0.08,3.07982
0.08,3.27505
0.08,3.47391
0.08,3.66732
0.08,3.84337
0.08,4.017562
0.08,4.191463
0.08,4.368101
0.08,4.54464
0.08,4.70224
0.08,4.829254
0.08,4.93383
0.08,5.02123
0.08,5.096565
0.08,5.16429
0.08,5.226499
0.08,5.284129
0.08,5.337122
0.08,5.38807
0.08,5.435627
0.08,5.47971
0.08,5.518446
0.08,5.554035
0.08,5.5873
0.08,5.61525
0.08,5.637923
0.08,5.65651
0.08,5.672863
0.08,5.68032
0.08,5.694522
0.08,5.70586
0.08,5.71582
0.08,5.723337
0.08,5.73002
0.08,5.735359
0.08,5.740359
0.08,5.74387
0.08,5.74689
0.08,5.748793
0.08,5.7504
0.08,5.75106
0.08,5.75177