File: charging_cycle_204.csv
control/mA,Ewe/V
-0.08,-5.773338
-0.08,-5.795722
-0.08,-5.81198
-0.08,-5.829174
-0.08,-5.845585
-0.08,-5.862225
-0.08,-5.87724
-0.08,-5.89159
-0.08,-5.905772
-0.08,-5.913481
0.08,-4.90564
0.08,-3.899224
0.08,-2.89889
0.08,-1.89888
0.08,-0.898838
0.08,0.101287
0.08,0.739114
0.08,0.986064
0.08,1.073272
0.08,1.14436
0.08,1.22153
0.08,1.31188
0.08,1.415616
0.08,1.54442
0.08,1.709967
0.08,1.91062
0.08,2.10067
0.08,2.23985
0.08,2.34729
0.08,2.447054
0.08,2.552047
0.08,2.66881
0.08,2.8048
0.08,2.96794
0.08,3.14922
0.08,3.338236
0.08,3.53599
0.08,3.73226
0.08,3.91803
0.08,4.08294
0.08,4.236526
0.08,4.385524
0.08,4.532041
0.08,4.68434
0.08,4.834101
0.08,4.971993
0.08,5.090726
0.08,5.18757
0.08,5.26613
0.08,5.32974
0.08,5.38116
0.08,5.42126
0.08,5.452076
0.08,5.47891
0.08,5.49904
0.08,5.516366
0.08,5.53119
0.08,5.54442
0.08,5.5565
0.08,5.568061
0.08,5.578308
0.08,5.58806
0.08,5.59533
0.08,5.60445
0.08,5.612409
0.08,5.62002
0.08,5.626893
0.08,5.63372
0.08,5.636167
0.08,5.633
0.08,5.62697
0.08,5.62672
0.08,5.62789
0.08,5.63048
0.08,5.63327