File: charging_cycle_30.csv
control/mA,Ewe/V
-0.01,-2.1535
-0.01,-2.16705
-0.01,-2.18131
-0.01,-2.19487
-0.01,-2.20841
-0.01,-2.22232
-0.01,-2.23486
-0.01,-2.2477
-0.01,-2.26071
-0.01,-2.27356
0.01,-0.9724574
0.01,0.0551706
0.01,1.05537
0.01,1.17525
0.01,1.20345
0.01,1.23126
0.01,1.25698
0.01,1.2803
0.01,1.3015
0.01,1.32152
0.01,1.33982
0.01,1.35715
0.01,1.374
0.01,1.39005
0.01,1.405674
0.01,1.42069
0.01,1.43512
0.01,1.44955
0.01,1.46351
0.01,1.477444
0.01,1.4917
0.01,1.50525
0.01,1.51908
0.01,1.53347
0.01,1.54759
0.01,1.561637
0.01,1.57559
0.01,1.59009
0.01,1.60467
0.01,1.61877
0.01,1.63308
0.01,1.64697
0.01,1.66073
0.01,1.67447
0.01,1.68913
0.01,1.70331
0.01,1.71737
0.01,1.73123
0.01,1.745728
0.01,1.76025
0.01,1.77449
0.01,1.78914
0.01,1.8037
0.01,1.818376
0.01,1.833165
0.01,1.848145
0.01,1.86251
0.01,1.87711
0.01,1.89209
0.01,1.906519
0.01,1.92096
0.01,1.93518
0.01,1.94913
0.01,1.96352
0.01,1.97722
0.01,1.99123
0.01,2.00489
0.01,2.01842
0.01,2.03138
0.01,2.04422
0.01,2.05752
0.01,2.07036
0.01,2.08326