File: charging_cycle_39.csv
control/mA,Ewe/V
-0.01,-0.5146585
-0.01,-0.50548
-0.01,-0.5023883
-0.01,-0.5030944
-0.01,-0.503705
-0.01,-0.5042966
-0.01,-0.50548
-0.01,-0.507006
-0.01,-0.5083803
-0.01,-0.5101168
0.01,-0.249784
0.01,0.20976
0.01,0.247524
0.01,0.272542
0.01,0.291663
0.01,0.307635
0.01,0.321336
0.01,0.332996
0.01,0.343625
0.01,0.353224
0.01,0.361544
0.01,0.3692722
0.01,0.376485
0.01,0.383203
0.01,0.3895953
0.01,0.3954537
0.01,0.401064
0.01,0.406293
0.01,0.411502
0.01,0.416483
0.01,0.421044
0.01,0.425414
0.01,0.429555
0.01,0.433619
0.01,0.437455
0.01,0.441042
0.01,0.444687
0.01,0.448103
0.01,0.451404
0.01,0.4545147
0.01,0.45753
0.01,0.460659
0.01,0.4639225
0.01,0.466728
0.01,0.469437
0.01,0.4722235
0.01,0.4747615
0.01,0.477528
0.01,0.4802573
0.01,0.4823564
0.01,0.485104
0.01,0.487738
0.01,0.490142
0.01,0.493272
0.01,0.495237
0.01,0.497107
0.01,0.499073
0.01,0.5013056
0.01,0.5032902
0.01,0.5052748
0.01,0.5075456
0.01,0.5092249
0.01,0.5109805
0.01,0.512698
0.01,0.514473
0.01,0.5163237
0.01,0.5179648
0.01,0.5194532
0.01,0.5211707
0.01,0.52306
0.01,0.52451