File: charging_cycle_190.csv
control/mA,Ewe/V
-0.08,-5.14275
-0.08,-5.17706
-0.08,-5.208928
-0.08,-5.2383
-0.08,-5.267379
-0.08,-5.29436
-0.08,-5.319131
-0.08,-5.34077
-0.08,-5.35518
-0.08,-5.36865
0.08,-4.533964
0.08,-3.532206
0.08,-2.53206
0.08,-1.53206
0.08,-0.5320108
0.08,0.442569
0.08,0.9351894
0.08,1.06009
0.08,1.14289
0.08,1.24055
0.08,1.35409
0.08,1.48536
0.08,1.64541
0.08,1.83036
0.08,1.98651
0.08,2.08616
0.08,2.15757
0.08,2.21634
0.08,2.27124
0.08,2.33061
0.08,2.39948
0.08,2.4839
0.08,2.58727
0.08,2.704499
0.08,2.828861
0.08,2.956887
0.08,3.08821
0.08,3.22727
0.08,3.37165
0.08,3.51395
0.08,3.65073
0.08,3.78496
0.08,3.916767
0.08,4.05336
0.08,4.19024
0.08,4.329802
0.08,4.46405
0.08,4.58866
0.08,4.69985
0.08,4.79571
0.08,4.876217
0.08,4.94595
0.08,5.00583
0.08,5.06021
0.08,5.109656
0.08,5.15713
0.08,5.202226
0.08,5.246517
0.08,5.28837
0.08,5.328153
0.08,5.36296
0.08,5.38987
0.08,5.412422
0.08,5.431581
0.08,5.44599
0.08,5.458221
0.08,5.467247
0.08,5.47606
0.08,5.48263
0.08,5.488505
0.08,5.49423
0.08,5.49919
0.08,5.50385
0.08,5.50824
0.08,5.50984