File: charging_cycle_213.csv
control/mA,Ewe/V
-0.08,-6.295943
-0.08,-6.332677
-0.08,-6.3655
-0.08,-6.399295
-0.08,-6.43013
-0.08,-6.45971
-0.08,-6.49202
-0.08,-6.523695
-0.08,-6.5548
-0.08,-6.57329
0.08,-5.33807
0.08,-4.272831
0.08,-3.27207
0.08,-2.271735
0.08,-1.2716
0.08,-0.2715126
0.08,0.601051
0.08,0.982152
0.08,1.12062
0.08,1.178017
0.08,1.23647
0.08,1.30889
0.08,1.4018
0.08,1.50868
0.08,1.65175
0.08,1.83372
0.08,2.03281
0.08,2.21262
0.08,2.358262
0.08,2.48774
0.08,2.61615
0.08,2.75606
0.08,2.91813
0.08,3.1051
0.08,3.30173
0.08,3.50969
0.08,3.71266
0.08,3.90154
0.08,4.07237
0.08,4.230152
0.08,4.38684
0.08,4.54378
0.08,4.703041
0.08,4.85639
0.08,4.98749
0.08,5.096355
0.08,5.186082
0.08,5.263119
0.08,5.330481
0.08,5.39769
0.08,5.456866
0.08,5.508466
0.08,5.555714
0.08,5.59541
0.08,5.63006
0.08,5.66065
0.08,5.689675
0.08,5.715303
0.08,5.73364
0.08,5.7562
0.08,5.77509
0.08,5.791844
0.08,5.805469
0.08,5.819342
0.08,5.83104
0.08,5.842623
0.08,5.85203
0.08,5.86186
0.08,5.870198
0.08,5.87873
0.08,5.885979
0.08,5.893765
0.08,5.90226
0.08,5.9092
0.08,5.91405
0.08,5.918095