File: charging_cycle_59.csv
control/mA,Ewe/V
-0.01,-0.531375
-0.01,-0.534085
-0.01,-0.5370807
-0.01,-0.5402294
-0.01,-0.5430727
-0.01,-0.5462213
-0.01,-0.5484922
-0.01,-0.5508775
-0.01,-0.553702
-0.01,-0.555686
0.01,-0.292587
0.01,0.203272
0.01,0.250406
0.01,0.278744
0.01,0.300021
0.01,0.317234
0.01,0.332118
0.01,0.3455333
0.01,0.35767
0.01,0.367841
0.01,0.3776686
0.01,0.387115
0.01,0.395492
0.01,0.403774
0.01,0.411407
0.01,0.418601
0.01,0.425337
0.01,0.432264
0.01,0.438657
0.01,0.444783
0.01,0.450889
0.01,0.456919
0.01,0.462644
0.01,0.4682352
0.01,0.473578
0.01,0.4787307
0.01,0.483864
0.01,0.488539
0.01,0.4934244
0.01,0.498252
0.01,0.5029848
0.01,0.507641
0.01,0.512221
0.01,0.5163809
0.01,0.5209226
0.01,0.525254
0.01,0.5291854
0.01,0.5334218
0.01,0.5378299
0.01,0.541742
0.01,0.545749
0.01,0.549947
0.01,0.5537449
0.01,0.5577332
0.01,0.5614352
0.01,0.565023
0.01,0.5686103
0.01,0.572541
0.01,0.576205
0.01,0.5797356
0.01,0.5832086
0.01,0.586701
0.01,0.589983
0.01,0.5935896
0.01,0.597177
0.01,0.6000968
0.01,0.603131
0.01,0.606719
0.01,0.609924
0.01,0.613245
0.01,0.6162599