File: charging_cycle_131.csv
control/mA,Ewe/V
-0.02,-2.27329
-0.02,-2.30754
-0.02,-2.34105
-0.02,-2.37071
-0.02,-2.39998
-0.02,-2.42719
-0.02,-2.45494
-0.02,-2.479078
-0.02,-2.50516
-0.02,-2.514591
0.02,-1.77889
0.02,-0.7788458
0.02,0.22119
0.02,0.388775
0.02,0.46501
0.02,0.516629
0.02,0.5503291
0.02,0.5771212
0.02,0.602921
0.02,0.6292934
0.02,0.6566008
0.02,0.6851485
0.02,0.715566
0.02,0.7461941
0.02,0.776555
0.02,0.8060757
0.02,0.832868
0.02,0.856702
0.02,0.8811281
0.02,0.906203
0.02,0.931163
0.02,0.9558369
0.02,0.983049
0.02,1.01293
0.02,1.04451
0.02,1.078806
0.02,1.11348
0.02,1.15185
0.02,1.19298
0.02,1.23639
0.02,1.28307
0.02,1.33156
0.02,1.3843
0.02,1.44029
0.02,1.50067
0.02,1.56438
0.02,1.63116
0.02,1.701
0.02,1.77408
0.02,1.84963
0.02,1.92686
0.02,2.000425
0.02,2.073283
0.02,2.1436
0.02,2.20633
0.02,2.2659
0.02,2.31748
0.02,2.368624
0.02,2.419823
0.02,2.46682
0.02,2.514397
0.02,2.559909
0.02,2.605784
0.02,2.64929
0.02,2.69156
0.02,2.735642
0.02,2.777624
0.02,2.81934
0.02,2.86355
0.02,2.90626
0.02,2.94828
0.02,2.986866