File: charging_cycle_42.csv
control/mA,Ewe/V
-0.01,-0.4629253
-0.01,-0.464585
-0.01,-0.466456
-0.01,-0.468288
-0.01,-0.469833
-0.01,-0.4717415
-0.01,-0.47344
-0.01,-0.4751
-0.01,-0.476741
-0.01,-0.478325
0.01,-0.226619
0.01,0.227965
0.01,0.268382
0.01,0.29546
0.01,0.316432
0.01,0.333969
0.01,0.348758
0.01,0.361735
0.01,0.373299
0.01,0.383641
0.01,0.392973
0.01,0.401598
0.01,0.409518
0.01,0.4171126
0.01,0.424097
0.01,0.4302415
0.01,0.4363289
0.01,0.442073
0.01,0.4477022
0.01,0.453198
0.01,0.4580641
0.01,0.462911
0.01,0.4674719
0.01,0.4718991
0.01,0.476155
0.01,0.480505
0.01,0.484398
0.01,0.4868027
0.01,0.490104
0.01,0.493463
0.01,0.496344
0.01,0.499626
0.01,0.5028704
0.01,0.5061335
0.01,0.508824
0.01,0.5118965
0.01,0.5147589
0.01,0.5175259
0.01,0.5206173
0.01,0.523174
0.01,0.5258269
0.01,0.5283649
0.01,0.53096
0.01,0.5337271
0.01,0.536036
0.01,0.538593
0.01,0.5406923
0.01,0.542925
0.01,0.5451577
0.01,0.547142
0.01,0.548917
0.01,0.5509588
0.01,0.5526572
0.01,0.55447
0.01,0.556359
0.01,0.558287
0.01,0.5599849
0.01,0.5615116
0.01,0.5631145
0.01,0.564794
0.01,0.566378