File: charging_cycle_36.csv
control/mA,Ewe/V
-0.01,-0.5661437
-0.01,-0.567861
-0.01,-0.5695595
-0.01,-0.571353
-0.01,-0.5729944
-0.01,-0.5741966
-0.01,-0.5758759
-0.01,-0.577345
-0.01,-0.5790627
-0.01,-0.580513
0.01,-0.279922
0.01,0.25968
0.01,0.29922
0.01,0.324714
0.01,0.344369
0.01,0.3603033
0.01,0.373871
0.01,0.3855116
0.01,0.3957972
0.01,0.405014
0.01,0.413048
0.01,0.4204139
0.01,0.426997
0.01,0.433047
0.01,0.4386188
0.01,0.443905
0.01,0.448599
0.01,0.4531026
0.01,0.4573008
0.01,0.46127
0.01,0.464991
0.01,0.468598
0.01,0.4719945
0.01,0.475353
0.01,0.478693
0.01,0.481841
0.01,0.484837
0.01,0.487661
0.01,0.490619
0.01,0.4932145
0.01,0.4959433
0.01,0.498519
0.01,0.5011147
0.01,0.5034047
0.01,0.505561
0.01,0.5078891
0.01,0.510408
0.01,0.512374
0.01,0.5145108
0.01,0.516629
0.01,0.51848
0.01,0.5204455
0.01,0.5222393
0.01,0.52409
0.01,0.525846
0.01,0.527945
0.01,0.529853
0.01,0.531552
0.01,0.5332691
0.01,0.53491
0.01,0.5367613
0.01,0.5382688
0.01,0.539757
0.01,0.541303
0.01,0.5430013
0.01,0.544528
0.01,0.5459019
0.01,0.547257
0.01,0.5488788
0.01,0.550176
0.01,0.551569