File: charging_cycle_238.csv
control/mA,Ewe/V
-0.08,-6.37662
-0.08,-6.438472
-0.08,-6.49912
-0.08,-6.555029
-0.08,-6.60461
-0.08,-6.661682
-0.08,-6.714713
-0.08,-6.76488
-0.08,-6.815222
-0.08,-6.842415
0.08,-5.68691
0.08,-4.653951
0.08,-3.65077
0.08,-2.65072
0.08,-1.650678
0.08,-0.650629
0.08,0.299506
0.08,0.6692144
0.08,0.8632857
0.08,0.9545393
0.08,1.03648
0.08,1.124013
0.08,1.21435
0.08,1.31931
0.08,1.439145
0.08,1.58633
0.08,1.77844
0.08,1.9939
0.08,2.18032
0.08,2.33073
0.08,2.4714
0.08,2.62229
0.08,2.7923
0.08,2.97322
0.08,3.165423
0.08,3.36631
0.08,3.56782
0.08,3.764296
0.08,3.9514
0.08,4.13261
0.08,4.30385
0.08,4.464736
0.08,4.61251
0.08,4.745786
0.08,4.868107
0.08,4.97255
0.08,5.06224
0.08,5.146142
0.08,5.22213
0.08,5.290598
0.08,5.353934
0.08,5.41317
0.08,5.4665
0.08,5.51518
0.08,5.56012
0.08,5.59869
0.08,5.633114
0.08,5.66162
0.08,5.685496
0.08,5.70622
0.08,5.72368
0.08,5.73906
0.08,5.751961
0.08,5.762762
0.08,5.77328
0.08,5.78209
0.08,5.79079
0.08,5.79889
0.08,5.80535
0.08,5.81249
0.08,5.819247
0.08,5.82547
0.08,5.83123
0.08,5.83673
0.08,5.84133
0.08,5.84325