File: charging_cycle_84.csv
control/mA,Ewe/V
-0.01,-0.607267
-0.01,-0.6124
-0.01,-0.6158733
-0.01,-0.620434
-0.01,-0.6240025
-0.01,-0.627953
-0.01,-0.6325134
-0.01,-0.6353758
-0.01,-0.6397458
-0.01,-0.6445737
0.01,-0.35134
0.01,0.210638
0.01,0.260672
0.01,0.29067
0.01,0.312902
0.01,0.3300763
0.01,0.345056
0.01,0.358987
0.01,0.371333
0.01,0.3820004
0.01,0.392725
0.01,0.402533
0.01,0.412227
0.01,0.420776
0.01,0.429516
0.01,0.4375311
0.01,0.445641
0.01,0.4532362
0.01,0.4603731
0.01,0.46772
0.01,0.474571
0.01,0.480982
0.01,0.4876805
0.01,0.494245
0.01,0.500752
0.01,0.506515
0.01,0.5130033
0.01,0.5185182
0.01,0.524167
0.01,0.529911
0.01,0.535578
0.01,0.5414175
0.01,0.547448
0.01,0.552619
0.01,0.5580194
0.01,0.5634198
0.01,0.568171
0.01,0.574125
0.01,0.5795066
0.01,0.5847352
0.01,0.590307
0.01,0.5965093
0.01,0.601375
0.01,0.60649
0.01,0.61231
0.01,0.6173667
0.01,0.621927
0.01,0.6274996
0.01,0.6327283
0.01,0.6380142
0.01,0.644121
0.01,0.649006
0.01,0.6544253
0.01,0.659597
0.01,0.6651689
0.01,0.67097
0.01,0.6766376
0.01,0.6824006
0.01,0.687572
0.01,0.6915985
0.01,0.698125