File: charging_cycle_105.csv
control/mA,Ewe/V
-0.02,-1.36434
-0.02,-1.39388
-0.02,-1.4225
-0.02,-1.45189
-0.02,-1.48303
-0.02,-1.512
-0.02,-1.54306
-0.02,-1.57449
-0.02,-1.60401
-0.02,-1.63344
0.02,-0.9601136
0.02,0.0400571
0.02,0.4544384
0.02,0.508939
0.02,0.54365
0.02,0.5707667
0.02,0.594544
0.02,0.6170423
0.02,0.639732
0.02,0.6637377
0.02,0.68824
0.02,0.7124941
0.02,0.736252
0.02,0.7585979
0.02,0.7789782
0.02,0.7978511
0.02,0.8158079
0.02,0.832868
0.02,0.849298
0.02,0.8660336
0.02,0.883189
0.02,0.900821
0.02,0.9203812
0.02,0.9388342
0.02,0.959997
0.02,0.98198
0.02,1.00513
0.02,1.02835
0.02,1.05358
0.02,1.07865
0.02,1.106724
0.02,1.13523
0.02,1.16573
0.02,1.19742
0.02,1.23074
0.02,1.265206
0.02,1.30217
0.02,1.33999
0.02,1.38077
0.02,1.41909
0.02,1.45975
0.02,1.50195
0.02,1.54433
0.02,1.58852
0.02,1.63159
0.02,1.67646
0.02,1.72277
0.02,1.76857
0.02,1.81517
0.02,1.860835
0.02,1.9064
0.02,1.95178
0.02,1.99697
0.02,2.04178
0.02,2.08517
0.02,2.129768
0.02,2.171063
0.02,2.2114
0.02,2.252162
0.02,2.29258
0.02,2.331298
0.02,2.36788