File: charging_cycle_211.csv
control/mA,Ewe/V
-0.08,-6.232168
-0.08,-6.26274
-0.08,-6.29245
-0.08,-6.321304
-0.08,-6.350157
-0.08,-6.37712
-0.08,-6.40006
-0.08,-6.428911
-0.08,-6.45486
-0.08,-6.47267
0.08,-5.17817
0.08,-4.12431
0.08,-3.11935
0.08,-2.11892
0.08,-1.1189
0.08,-0.118889
0.08,0.732722
0.08,1.07852
0.08,1.165079
0.08,1.20689
0.08,1.26444
0.08,1.33841
0.08,1.42943
0.08,1.54471
0.08,1.702582
0.08,1.89165
0.08,2.09229
0.08,2.26976
0.08,2.413201
0.08,2.5406
0.08,2.67049
0.08,2.81569
0.08,2.98841
0.08,3.17926
0.08,3.37808
0.08,3.57772
0.08,3.77649
0.08,3.9593
0.08,4.122
0.08,4.277153
0.08,4.427811
0.08,4.575034
0.08,4.735768
0.08,4.880186
0.08,5.011761
0.08,5.120533
0.08,5.210565
0.08,5.29069
0.08,5.36105
0.08,5.423681
0.08,5.479498
0.08,5.528693
0.08,5.57094
0.08,5.60794
0.08,5.638285
0.08,5.66851
0.08,5.69513
0.08,5.718433
0.08,5.73958
0.08,5.757915
0.08,5.77543
0.08,5.79032
0.08,5.802931
0.08,5.811919
0.08,5.82312
0.08,5.83272
0.08,5.84199
0.08,5.849989
0.08,5.85713
0.08,5.86434
0.08,5.87064
0.08,5.8773
0.08,5.88346
0.08,5.88817
0.08,5.89357
0.08,5.895215