File: charging_cycle_178.csv
control/mA,Ewe/V
-0.08,-4.999324
-0.08,-5.031192
-0.08,-5.06077
-0.08,-5.090043
-0.08,-5.118858
-0.08,-5.1446
-0.08,-5.17343
-0.08,-5.20097
-0.08,-5.228278
-0.08,-5.238678
0.08,-4.45686
0.08,-3.45633
0.08,-2.4563
0.08,-1.45623
0.08,-0.456138
0.08,0.5026986
0.08,0.82678
0.08,0.9153434
0.08,1.01719
0.08,1.14825
0.08,1.29101
0.08,1.43151
0.08,1.592551
0.08,1.76689
0.08,1.90944
0.08,1.99697
0.08,2.05504
0.08,2.09779
0.08,2.132096
0.08,2.16391
0.08,2.195126
0.08,2.226286
0.08,2.259547
0.08,2.29603
0.08,2.33784
0.08,2.38566
0.08,2.44213
0.08,2.51001
0.08,2.58872
0.08,2.67469
0.08,2.76755
0.08,2.86145
0.08,2.95811
0.08,3.06108
0.08,3.1705
0.08,3.28513
0.08,3.4069
0.08,3.533815
0.08,3.66818
0.08,3.82217
0.08,3.98457
0.08,4.13351
0.08,4.261772
0.08,4.36732
0.08,4.4531
0.08,4.52038
0.08,4.57755
0.08,4.626195
0.08,4.671459
0.08,4.714529
0.08,4.756549
0.08,4.798283
0.08,4.84084
0.08,4.88213
0.08,4.91887
0.08,4.955181
0.08,4.99224
0.08,5.03027
0.08,5.06151
0.08,5.093054
0.08,5.120514
0.08,5.15055
0.08,5.17769
0.08,5.20467
0.08,5.209592