File: charging_cycle_91.csv
control/mA,Ewe/V
-0.01,-0.63196
-0.01,-0.6361391
-0.01,-0.6402419
-0.01,-0.643849
-0.01,-0.6497642
-0.01,-0.6544585
-0.01,-0.6588476
-0.01,-0.664153
-0.01,-0.6673966
-0.01,-0.6731024
0.01,-0.371378
0.01,0.21474
0.01,0.265119
0.01,0.296109
0.01,0.317348
0.01,0.3349233
0.01,0.349388
0.01,0.362212
0.01,0.37431
0.01,0.38555
0.01,0.396408
0.01,0.40719
0.01,0.417723
0.01,0.426768
0.01,0.436577
0.01,0.4453741
0.01,0.453751
0.01,0.461728
0.01,0.4696855
0.01,0.477433
0.01,0.484627
0.01,0.4914398
0.01,0.498615
0.01,0.505523
0.01,0.512946
0.01,0.519549
0.01,0.5255215
0.01,0.531933
0.01,0.5377345
0.01,0.54407
0.01,0.5502146
0.01,0.5563783
0.01,0.563229
0.01,0.569278
0.01,0.5750794
0.01,0.581052
0.01,0.587025
0.01,0.592292
0.01,0.5977306
0.01,0.6034936
0.01,0.609753
0.01,0.615287
0.01,0.6215267
0.01,0.626584
0.01,0.6322703
0.01,0.638052
0.01,0.644006
0.01,0.650094
0.01,0.6560283
0.01,0.6617722
0.01,0.668337
0.01,0.6742523
0.01,0.6808358
0.01,0.6874003
0.01,0.6936212
0.01,0.6997468
0.01,0.7059296
0.01,0.7121315
0.01,0.7193066
0.01,0.7248787
0.01,0.732035