File: charging_cycle_17.csv
control/mA,Ewe/V
-0.01,-2.034101
-0.01,-2.04614
-0.01,-2.05778
-0.01,-2.07005
-0.01,-2.08164
-0.01,-2.093162
-0.01,-2.10454
-0.01,-2.1157
-0.01,-2.126614
-0.01,-2.13774
0.01,-0.846214
0.01,0.161423
0.01,1.13458
0.01,1.17573
0.01,1.20632
0.01,1.23093
0.01,1.25181
0.01,1.27106
0.01,1.28797
0.01,1.30366
0.01,1.31873
0.01,1.33213
0.01,1.34495
0.01,1.35728
0.01,1.36942
0.01,1.38073
0.01,1.39241
0.01,1.403632
0.01,1.4147
0.01,1.42567
0.01,1.43653
0.01,1.44798
0.01,1.45878
0.01,1.47015
0.01,1.48103
0.01,1.49212
0.01,1.50357
0.01,1.51509
0.01,1.52605
0.01,1.537192
0.01,1.54929
0.01,1.56021
0.01,1.57181
0.01,1.5827
0.01,1.59431
0.01,1.60595
0.01,1.61705
0.01,1.62822
0.01,1.63949
0.01,1.65062
0.01,1.66098
0.01,1.67239
0.01,1.68335
0.01,1.69447
0.01,1.70531
0.01,1.71581
0.01,1.7268
0.01,1.73739
0.01,1.74794
0.01,1.75878
0.01,1.76928
0.01,1.77966
0.01,1.79031
0.01,1.80044
0.01,1.81153
0.01,1.82166
0.01,1.83166
0.01,1.84196
0.01,1.85234
0.01,1.86251
0.01,1.87263
0.01,1.88247