File: charging_cycle_251.csv
control/mA,Ewe/V
-0.08,-5.880411
-0.08,-5.91423
-0.08,-5.949338
-0.08,-5.982446
-0.08,-6.01454
-0.08,-6.047862
-0.08,-6.079024
-0.08,-6.10931
-0.08,-6.13894
-0.08,-6.15637
0.08,-5.243893
0.08,-4.22894
0.08,-3.2285
0.08,-2.22844
0.08,-1.22843
0.08,-0.228271
0.08,0.262905
0.08,0.5649846
0.08,0.7637884
0.08,0.8800213
0.08,0.8996383