File: charging_cycle_266.csv
control/mA,Ewe/V
-0.08,-5.41214
-0.08,-5.42748
-0.08,-5.44103
-0.08,-5.45513
-0.08,-5.466793
-0.08,-5.479483
-0.08,-5.490551
-0.08,-5.501657
-0.08,-5.512019
-0.08,-5.51782
0.08,-4.881995
0.08,-3.876611
0.08,-2.87628
0.08,-1.87623
0.08,-0.876015
0.08,-0.0204031
0.08,0.479914
0.08,0.740698
0.08,0.909619
0.08,1.02528
0.08,1.104186
0.08,1.17279
0.08,1.24288
0.08,1.32314
0.08,1.423001
0.08,1.55591
0.08,1.72437
0.08,1.90866
0.08,2.04527
0.08,2.13803
0.08,2.223729
0.08,2.32168
0.08,2.44215
0.08,2.59729
0.08,2.77482
0.08,2.9508
0.08,3.12373
0.08,3.29188
0.08,3.463056
0.08,3.61452
0.08,3.74655
0.08,3.85973
0.08,3.97174
0.08,4.0883
0.08,4.207902
0.08,4.331596
0.08,4.453344
0.08,4.56563
0.08,4.665677
0.08,4.7505
0.08,4.825724
0.08,4.88908
0.08,4.94833
0.08,5.00052
0.08,5.048305
0.08,5.09212
0.08,5.131067
0.08,5.161809
0.08,5.188639
0.08,5.21072
0.08,5.22722
0.08,5.24112
0.08,5.250047
0.08,5.257566
0.08,5.26339
0.08,5.268939
0.08,5.272889
0.08,5.278061
0.08,5.28234
0.08,5.28636
0.08,5.289892
0.08,5.293327
0.08,5.29688
0.08,5.29924
0.08,5.30058