File: charging_cycle_170.csv
control/mA,Ewe/V
-0.04,-3.88084
-0.04,-3.96572
-0.04,-4.045922
-0.04,-4.11737
-0.04,-4.176085
-0.04,-4.22535
-0.04,-4.27052
-0.04,-4.310743
-0.04,-4.346351
-0.04,-4.374918
0.04,-3.68978
0.04,-2.68934
0.04,-1.68926
0.04,-0.6892143
0.04,0.310803
0.04,0.745068
0.04,0.8581906
0.04,0.9424981
0.04,1.026214
0.04,1.11321
0.04,1.19817
0.04,1.28446
0.04,1.38073
0.04,1.48977
0.04,1.614706
0.04,1.751014
0.04,1.882761
0.04,1.98483
0.04,2.05847
0.04,2.11116
0.04,2.15236
0.04,2.19127
0.04,2.22728
0.04,2.26193
0.04,2.298037
0.04,2.33321
0.04,2.36925
0.04,2.40885
0.04,2.45112
0.04,2.49686
0.04,2.548345
0.04,2.597693
0.04,2.66631
0.04,2.73469
0.04,2.80604
0.04,2.88411
0.04,2.96559
0.04,3.04974
0.04,3.136131
0.04,3.22925
0.04,3.32442
0.04,3.4214
0.04,3.51874
0.04,3.61946
0.04,3.72397
0.04,3.84129
0.04,3.96444
0.04,4.086622
0.04,4.193352
0.04,4.28278
0.04,4.355621
0.04,4.416877
0.04,4.4688
0.04,4.51536
0.04,4.56017
0.04,4.60078
0.04,4.639
0.04,4.673921
0.04,4.70806
0.04,4.73983
0.04,4.77122
0.04,4.80143
0.04,4.829846
0.04,4.848337