File: charging_cycle_247.csv
control/mA,Ewe/V
-0.08,-6.367083
-0.08,-6.430056
-0.08,-6.49469
-0.08,-6.562433
-0.08,-6.630348
-0.08,-6.69517
-0.08,-6.75608
-0.08,-6.805394
-0.08,-6.859513
-0.08,-6.89085
0.08,-5.79968
0.08,-4.780355
0.08,-3.77468
0.08,-2.77466
0.08,-1.7746
0.08,-0.7745904
0.08,0.127812
0.08,0.5234224
0.08,0.7557164
0.08,0.8759376
0.08,0.966237
0.08,1.05776
0.08,1.15626
0.08,1.26425
0.08,1.38365
0.08,1.52366
0.08,1.7076
0.08,1.930735
0.08,2.1433
0.08,2.304926
0.08,2.44446
0.08,2.58954
0.08,2.7573
0.08,2.94445
0.08,3.14187
0.08,3.34016
0.08,3.54246
0.08,3.73373
0.08,3.91276
0.08,4.08605
0.08,4.251849
0.08,4.4247
0.08,4.586961
0.08,4.730959
0.08,4.8508
0.08,4.949781
0.08,5.03569
0.08,5.11328
0.08,5.18326
0.08,5.24934
0.08,5.31157
0.08,5.36867
0.08,5.42696
0.08,5.47889
0.08,5.527014
0.08,5.56995
0.08,5.608421
0.08,5.64246
0.08,5.67179
0.08,5.698148
0.08,5.72166
0.08,5.743088
0.08,5.76196
0.08,5.779536
0.08,5.7941
0.08,5.80679
0.08,5.817835
0.08,5.82848
0.08,5.837032
0.08,5.844207
0.08,5.851783
0.08,5.856954
0.08,5.863137
0.08,5.86858
0.08,5.87298
0.08,5.87545