File: charging_cycle_4.csv
control/mA,Ewe/V
-0.01,-1.60934
-0.01,-1.617926
-0.01,-1.62703
-0.01,-1.632448
-0.01,-1.63794
-0.01,-1.64455
-0.01,-1.65178
-0.01,-1.66019
-0.01,-1.66863
-0.01,-1.67691
0.01,-0.478144
0.01,0.5223729
0.01,0.881319
0.01,0.9289875
0.01,0.960226
0.01,0.983736
0.01,1.00423
0.01,1.02198
0.01,1.0381
0.01,1.05306
0.01,1.06673
0.01,1.07883
0.01,1.09106
0.01,1.10243
0.01,1.11298
0.01,1.123097
0.01,1.13333
0.01,1.14313
0.01,1.15279
0.01,1.16203
0.01,1.170861
0.01,1.18027
0.01,1.18912
0.01,1.19796
0.01,1.2063
0.01,1.21511
0.01,1.22319
0.01,1.23162
0.01,1.23965
0.01,1.24778
0.01,1.25586
0.01,1.26347
0.01,1.27152
0.01,1.27935
0.01,1.28683
0.01,1.294727
0.01,1.30192
0.01,1.30971
0.01,1.31707
0.01,1.32453
0.01,1.332
0.01,1.33894
0.01,1.34648
0.01,1.35375
0.01,1.36102
0.01,1.368329
0.01,1.37522
0.01,1.38222
0.01,1.38959
0.01,1.396686
0.01,1.40356
0.01,1.41052
0.01,1.41745
0.01,1.42479
0.01,1.4321
0.01,1.4393
0.01,1.44655
0.01,1.45325
0.01,1.46006
0.01,1.46714
0.01,1.47014
0.01,1.4754