File: charging_cycle_252.csv
control/mA,Ewe/V
0.08,-1.22843
0.08,-0.228271
0.08,0.262905
0.08,0.5649846
0.08,0.7637884
0.08,0.8800213
0.08,0.8996383
0.0,0.899543
0.0,-0.541756
0.0,-0.541813
0.08,-0.5422903
0.08,0.4577397
0.08,0.9661225
0.08,1.05329
0.08,1.12745
0.08,1.1995
0.08,1.27902
0.08,1.3802
0.08,1.51246
0.08,1.68006
0.08,1.861312
0.08,2.024603
0.08,2.14883
0.08,2.2606
0.08,2.37805
0.08,2.51127
0.08,2.66168
0.08,2.82325
0.08,2.98843
0.08,3.15489
0.08,3.32377
0.08,3.48721
0.08,3.63782
0.08,3.77695
0.08,3.90768
0.08,4.035137
0.08,4.16442
0.08,4.28927
0.08,4.407755
0.08,4.517118
0.08,4.61381
0.08,4.69873
0.08,4.775708
0.08,4.843299
0.08,4.90473
0.08,4.960849
0.08,5.01361
0.08,5.0638
0.08,5.11044
0.08,5.15523
0.08,5.19662
0.08,5.237338
0.08,5.27573
0.08,5.31188
0.08,5.344564
0.08,5.37124
0.08,5.393473
0.08,5.409674
0.08,5.426219
0.08,5.43879
0.08,5.449519
0.08,5.458812
0.08,5.464747