File: charging_cycle_226.csv
control/mA,Ewe/V
-0.08,-6.635081
-0.08,-6.691184
-0.08,-6.74439
-0.08,-6.79835
-0.08,-6.85211
-0.08,-6.903384
-0.08,-6.955976
-0.08,-7.008148
-0.08,-7.05908
-0.08,-7.08875
0.08,-5.9951
0.08,-4.90134
0.08,-3.89322
0.08,-2.89156
0.08,-1.89147
0.08,-0.891434
0.08,0.108634
0.08,0.529338
0.08,0.8027553
0.08,0.944864
0.08,1.03461
0.08,1.12161
0.08,1.209141
0.08,1.30291
0.08,1.40842
0.08,1.533967
0.08,1.70157
0.08,1.90457
0.08,2.092404
0.08,2.24001
0.08,2.36557
0.08,2.49049
0.08,2.63284
0.08,2.79705
0.08,2.97826
0.08,3.165003
0.08,3.36005
0.08,3.5504
0.08,3.73718
0.08,3.90648
0.08,4.062483
0.08,4.21803
0.08,4.37486
0.08,4.52614
0.08,4.67157
0.08,4.792253
0.08,4.89118
0.08,4.975886
0.08,5.04632
0.08,5.11406
0.08,5.1753
0.08,5.232491
0.08,5.286743
0.08,5.336435
0.08,5.38384
0.08,5.42675
0.08,5.46484
0.08,5.49963
0.08,5.528369
0.08,5.552356
0.08,5.57424
0.08,5.59199
0.08,5.609413
0.08,5.625519
0.08,5.639545
0.08,5.651796
0.08,5.663341
0.08,5.67355
0.08,5.68237
0.08,5.69092
0.08,5.698243
0.08,5.705399
0.08,5.71191
0.08,5.718433
0.08,5.724749
0.08,5.728661