File: charging_cycle_0.csv
control/mA,Ewe/V
0.01,0.4074031
0.01,0.7294204
0.01,0.746633
0.01,0.757071
0.01,0.764113
0.01,0.7694941
0.01,0.770353
0.01,0.772147
0.01,0.77333
0.01,0.7748373
0.01,0.77623
0.01,0.777394
0.01,0.778425
0.01,0.779722
0.01,0.7807911
0.01,0.782108
0.01,0.783196
0.01,0.7845695
0.01,0.7855809
0.01,0.7866495
0.01,0.7876418
0.01,0.7884814
0.01,0.7896455
0.01,0.7906
0.01,0.7915156
0.01,0.7925079
0.01,0.7931758
0.01,0.7943589
0.01,0.7953512
0.01,0.7961527
0.01,0.796992
0.01,0.798118
0.01,0.7990723
0.01,0.8004081
0.01,0.801839
0.01,0.8029652
0.01,0.8042056
0.01,0.8054078
0.01,0.80703
0.01,0.808423
0.01,0.8098541
0.01,0.8117051
0.01,0.812984
0.01,0.8147393
0.01,0.8166857
0.01,0.818441
0.01,0.8204259
0.01,0.8221243
0.01,0.823842
0.01,0.8258645
0.01,0.8276583
0.01,0.829567
0.01,0.8318374
0.01,0.8340701
0.01,0.8360356
0.01,0.8385545
0.01,0.840921
0.01,0.8434397
0.01,0.8459395
0.01,0.8483821
0.01,0.8507102