File: charging_cycle_183.csv
control/mA,Ewe/V
-0.08,-5.013483
-0.08,-5.040256
-0.08,-5.06623
-0.08,-5.091169
-0.08,-5.115461
-0.08,-5.13821
-0.08,-5.155802
-0.08,-5.17527
-0.08,-5.18569
-0.08,-5.18916
0.08,-4.382552
0.08,-3.382464
0.08,-2.382281
0.08,-1.38226
0.08,-0.382116
0.08,0.5800218
0.08,1.02444
0.08,1.1529
0.08,1.2632
0.08,1.37844
0.08,1.50135
0.08,1.6482
0.08,1.8192
0.08,1.95955
0.08,2.05185
0.08,2.115933
0.08,2.164136
0.08,2.202776
0.08,2.24123
0.08,2.28147
0.08,2.327787
0.08,2.38124
0.08,2.44263
0.08,2.51411
0.08,2.5964
0.08,2.69013
0.08,2.7911
0.08,2.89962
0.08,3.011998
0.08,3.132906
0.08,3.25962
0.08,3.38797
0.08,3.51479
0.08,3.6431
0.08,3.77359
0.08,3.90921
0.08,4.04704
0.08,4.18331
0.08,4.313601
0.08,4.430349
0.08,4.53057
0.08,4.614478
0.08,4.684397
0.08,4.74237
0.08,4.796394
0.08,4.844845
0.08,4.89066
0.08,4.93421
0.08,4.97554
0.08,5.015788
0.08,5.052675
0.08,5.089676
0.08,5.125666
0.08,5.160282
0.08,5.186559
0.08,5.216595
0.08,5.246746
0.08,5.27766
0.08,5.307868
0.08,5.33687
0.08,5.36462
0.08,5.391813
0.08,5.41637
0.08,5.43276
0.08,5.432497