File: charging_cycle_122.csv
control/mA,Ewe/V
-0.02,-1.9043
-0.02,-1.94762
-0.02,-1.99042
-0.02,-2.03263
-0.02,-2.07232
-0.02,-2.11186
-0.02,-2.14684
-0.02,-2.18001
-0.02,-2.21501
-0.02,-2.232243
0.02,-1.52576
0.02,-0.5255799
0.02,0.3978963
0.02,0.478559
0.02,0.513728
0.02,0.540845
0.02,0.5644503
0.02,0.588571
0.02,0.6116991
0.02,0.6357433
0.02,0.6616577
0.02,0.688755
0.02,0.7180662
0.02,0.7470719
0.02,0.7744938
0.02,0.8012287
0.02,0.8240898
0.02,0.8466074
0.02,0.868667
0.02,0.89086
0.02,0.912767
0.02,0.9361054
0.02,0.9618289
0.02,0.989346
0.02,1.01879
0.02,1.04984
0.02,1.08306
0.02,1.118689
0.02,1.15649
0.02,1.19632
0.02,1.23872
0.02,1.286674
0.02,1.33553
0.02,1.38703
0.02,1.4393
0.02,1.498416
0.02,1.560263
0.02,1.62478
0.02,1.69417
0.02,1.76468
0.02,1.836619
0.02,1.9107
0.02,1.983079
0.02,2.053914
0.02,2.121524
0.02,2.18534
0.02,2.24529
0.02,2.30161
0.02,2.35477
0.02,2.404404
0.02,2.45587
0.02,2.50465
0.02,2.55117
0.02,2.59924
0.02,2.643606
0.02,2.68832
0.02,2.73165
0.02,2.77425
0.02,2.81699
0.02,2.85829
0.02,2.89821
0.02,2.93677