File: charging_cycle_63.csv
control/mA,Ewe/V
-0.01,-0.546011
-0.01,-0.5493509
-0.01,-0.552366
-0.01,-0.555057
-0.01,-0.558701
-0.01,-0.5620027
-0.01,-0.564961
-0.01,-0.567728
-0.01,-0.570647
-0.01,-0.5737004
0.01,-0.305251
0.01,0.204016
0.01,0.2529058
0.01,0.282293
0.01,0.304601
0.01,0.321756
0.01,0.33666
0.01,0.350151
0.01,0.3621925
0.01,0.37286
0.01,0.3832217
0.01,0.392496
0.01,0.4011976
0.01,0.409422
0.01,0.41717
0.01,0.424688
0.01,0.431921
0.01,0.438829
0.01,0.445221
0.01,0.451595
0.01,0.457892
0.01,0.46398
0.01,0.469914
0.01,0.475468
0.01,0.481116
0.01,0.486822
0.01,0.4919932
0.01,0.4970501
0.01,0.501973
0.01,0.5073548
0.01,0.512259
0.01,0.5169534
0.01,0.521877
0.01,0.526323
0.01,0.5305785
0.01,0.5352537
0.01,0.5400244
0.01,0.54449
0.01,0.549375
0.01,0.5537258
0.01,0.5580385
0.01,0.5626565
0.01,0.5668738
0.01,0.571148
0.01,0.5752702
0.01,0.579755
0.01,0.583953
0.01,0.5878839
0.01,0.591567
0.01,0.595956
0.01,0.599677
0.01,0.6034936
0.01,0.607787
0.01,0.6113556
0.01,0.6152676
0.01,0.619065
0.01,0.622557
0.01,0.626565
0.01,0.6302666
0.01,0.6333771
0.01,0.6368501