File: charging_cycle_80.csv
control/mA,Ewe/V
-0.01,-0.5946533
-0.01,-0.5995003
-0.01,-0.6037939
-0.01,-0.6073624
-0.01,-0.610816
-0.01,-0.615434
-0.01,-0.618163
-0.01,-0.622266
-0.01,-0.625854
-0.01,-0.6300136
0.01,-0.340759
0.01,0.211038
0.01,0.261569
0.01,0.2916437
0.01,0.3133789
0.01,0.330458
0.01,0.3451898
0.01,0.358071
0.01,0.370245
0.01,0.381065
0.01,0.391962
0.01,0.401827
0.01,0.411178
0.01,0.419479
0.01,0.4277035
0.01,0.435833
0.01,0.443657
0.01,0.451137
0.01,0.45835
0.01,0.465106
0.01,0.471842
0.01,0.4783872
0.01,0.484933
0.01,0.490619
0.01,0.4967066
0.01,0.5027177
0.01,0.508271
0.01,0.5143009
0.01,0.5199494
0.01,0.5257887
0.01,0.530941
0.01,0.5367231
0.01,0.5419136
0.01,0.5469514
0.01,0.552695
0.01,0.5577141
0.01,0.5636679
0.01,0.568801
0.01,0.573877
0.01,0.5795066
0.01,0.5851932
0.01,0.590365
0.01,0.5951735
0.01,0.6005739
0.01,0.605783
0.01,0.6108404
0.01,0.6160691
0.01,0.62126
0.01,0.625935
0.01,0.6309727
0.01,0.635533
0.01,0.6405713
0.01,0.6459526
0.01,0.651544
0.01,0.6562382
0.01,0.661162
0.01,0.6652643
0.01,0.6710464
0.01,0.675607
0.01,0.6805305
0.01,0.685664