File: charging_cycle_181.csv
control/mA,Ewe/V
-0.08,-5.08823
-0.08,-5.123686
-0.08,-5.15699
-0.08,-5.18958
-0.08,-5.22082
-0.08,-5.25072
-0.08,-5.27921
-0.08,-5.30709
-0.08,-5.3331
-0.08,-5.33632
0.08,-4.56683
0.08,-3.56642
0.08,-2.5662
0.08,-1.56618
0.08,-0.5661116
0.08,0.433944
0.08,0.891814
0.08,1.00331
0.08,1.11209
0.08,1.24402
0.08,1.375008
0.08,1.51092
0.08,1.6694
0.08,1.84118
0.08,1.96476
0.08,2.04199
0.08,2.094961
0.08,2.13482
0.08,2.16757
0.08,2.19961
0.08,2.2318
0.08,2.26869
0.08,2.30855
0.08,2.35418
0.08,2.40984
0.08,2.475411
0.08,2.55182
0.08,2.638301
0.08,2.73242
0.08,2.83251
0.08,2.93597
0.08,3.04627
0.08,3.16401
0.08,3.28784
0.08,3.40571
0.08,3.52836
0.08,3.659303
0.08,3.799828
0.08,3.9518
0.08,4.093187
0.08,4.22542
0.08,4.33612
0.08,4.425674
0.08,4.49534
0.08,4.55265
0.08,4.599479
0.08,4.64272
0.08,4.682718
0.08,4.719624
0.08,4.75705
0.08,4.79386
0.08,4.82903
0.08,4.86757
0.08,4.903963
0.08,4.94163
0.08,4.978672
0.08,5.01575
0.08,5.05048
0.08,5.08401
0.08,5.116831
0.08,5.14906
0.08,5.179136
0.08,5.20711
0.08,5.234991
0.08,5.245601