File: charging_cycle_205.csv
control/mA,Ewe/V
-0.08,-5.78639
-0.08,-5.8049
-0.08,-5.82295
-0.08,-5.840223
-0.08,-5.85694
-0.08,-5.87295
-0.08,-5.88699
-0.08,-5.90213
-0.08,-5.916115
-0.08,-5.923137
0.08,-4.94548
0.08,-3.94025
0.08,-2.93995
0.08,-1.93994
0.08,-0.939923
0.08,0.060126
0.08,0.702628
0.08,0.9731831
0.08,1.06699
0.08,1.13951
0.08,1.21721
0.08,1.30503
0.08,1.40434
0.08,1.529101
0.08,1.69033
0.08,1.89236
0.08,2.085763
0.08,2.22096
0.08,2.32794
0.08,2.429555
0.08,2.53602
0.08,2.65925
0.08,2.804149
0.08,2.97105
0.08,3.15098
0.08,3.33934
0.08,3.53792
0.08,3.73388
0.08,3.91253
0.08,4.07162
0.08,4.226507
0.08,4.37551
0.08,4.52843
0.08,4.684
0.08,4.832823
0.08,4.965734
0.08,5.07517
0.08,5.16408
0.08,5.23671
0.08,5.29909
0.08,5.35351
0.08,5.399408
0.08,5.43536
0.08,5.464995
0.08,5.48931
0.08,5.509668
0.08,5.52667
0.08,5.540868
0.08,5.55226
0.08,5.562775
0.08,5.573194
0.08,5.58184
0.08,5.590235
0.08,5.59804
0.08,5.605768
0.08,5.612695
0.08,5.61989
0.08,5.62586
0.08,5.63231
0.08,5.63787
0.08,5.64269
0.08,5.64809
0.08,5.653437
0.08,5.658208
0.08,5.66164