File: charging_cycle_189.csv
control/mA,Ewe/V
-0.08,-5.129697
-0.08,-5.16101
-0.08,-5.19011
-0.08,-5.217191
-0.08,-5.24312
-0.08,-5.26845
-0.08,-5.291156
-0.08,-5.31423
-0.08,-5.33535
-0.08,-5.352087
0.08,-4.488757
0.08,-3.487476
0.08,-2.48724
0.08,-1.48708
0.08,-0.4869565
0.08,0.488024
0.08,0.9551309
0.08,1.06446
0.08,1.14766
0.08,1.24763
0.08,1.36182
0.08,1.49639
0.08,1.65925
0.08,1.84704
0.08,1.99997
0.08,2.09996
0.08,2.17232
0.08,2.22993
0.08,2.2854
0.08,2.34553
0.08,2.41622
0.08,2.50121
0.08,2.600994
0.08,2.71412
0.08,2.83449
0.08,2.95857
0.08,3.08802
0.08,3.227022
0.08,3.36804
0.08,3.50599
0.08,3.63885
0.08,3.7709
0.08,3.903123
0.08,4.03798
0.08,4.17509
0.08,4.312971
0.08,4.44632
0.08,4.568126
0.08,4.68281
0.08,4.78157
0.08,4.86503
0.08,4.937854
0.08,5.001323
0.08,5.058972
0.08,5.11187
0.08,5.159023
0.08,5.19127
0.08,5.22518
0.08,5.260867
0.08,5.297544
0.08,5.331912
0.08,5.36296
0.08,5.38718
0.08,5.406907
0.08,5.425303
0.08,5.43988
0.08,5.45166
0.08,5.461961
0.08,5.46919
0.08,5.47452
0.08,5.479918
0.08,5.485013
0.08,5.49028
0.08,5.495146
0.08,5.49715