File: charging_cycle_26.csv
control/mA,Ewe/V
-0.01,-2.130755
-0.01,-2.144132
-0.01,-2.156555
-0.01,-2.170447
-0.01,-2.18319
-0.01,-2.1964
-0.01,-2.20946
-0.01,-2.22173
-0.01,-2.23457
-0.01,-2.24621
0.01,-0.943201
0.01,0.06600959
0.01,1.06608
0.01,1.17514
0.01,1.20805
0.01,1.23803
0.01,1.26397
0.01,1.286674
0.01,1.30784
0.01,1.32684
0.01,1.34463
0.01,1.36098
0.01,1.37695
0.01,1.39159
0.01,1.40653
0.01,1.42067
0.01,1.43458
0.01,1.44766
0.01,1.4609
0.01,1.47428
0.01,1.48695
0.01,1.50031
0.01,1.51345
0.01,1.52614
0.01,1.53933
0.01,1.55234
0.01,1.56597
0.01,1.57935
0.01,1.59295
0.01,1.60677
0.01,1.62049
0.01,1.63392
0.01,1.64701
0.01,1.66052
0.01,1.6739
0.01,1.68762
0.01,1.70071
0.01,1.714337
0.01,1.72789
0.01,1.7408
0.01,1.75494
0.01,1.76811
0.01,1.78204
0.01,1.79597
0.01,1.80981
0.01,1.82261
0.01,1.83671
0.01,1.8504
0.01,1.863354
0.01,1.87761
0.01,1.891
0.01,1.90415
0.01,1.917568
0.01,1.93129
0.01,1.94436
0.01,1.95739
0.01,1.97001
0.01,1.98214
0.01,1.99327
0.01,2.0051
0.01,2.01716
0.01,2.02972
0.01,2.04172