File: charging_cycle_126.csv
control/mA,Ewe/V
-0.02,-2.11982
-0.02,-2.159837
-0.02,-2.19886
-0.02,-2.23553
-0.02,-2.26879
-0.02,-2.30022
-0.02,-2.329584
-0.02,-2.360231
-0.02,-2.38697
-0.02,-2.39536
0.02,-1.67437
0.02,-0.67433
0.02,0.325687
0.02,0.442798
0.02,0.498844
0.02,0.5318761
0.02,0.557332
0.02,0.5813194
0.02,0.605211
0.02,0.6294651
0.02,0.655513
0.02,0.6830685
0.02,0.711235
0.02,0.740469
0.02,0.769055
0.02,0.7960573
0.02,0.8215518
0.02,0.845119
0.02,0.8673885
0.02,0.890059
0.02,0.9119657
0.02,0.9355711
0.02,0.960417
0.02,0.987648
0.02,1.01761
0.02,1.04835
0.02,1.08201
0.02,1.11691
0.02,1.15518
0.02,1.19399
0.02,1.23777
0.02,1.28377
0.02,1.33366
0.02,1.38398
0.02,1.44086
0.02,1.49878
0.02,1.56156
0.02,1.62843
0.02,1.69768
0.02,1.76573
0.02,1.83857
0.02,1.91085
0.02,1.9872
0.02,2.05973
0.02,2.127707
0.02,2.1915
0.02,2.25096
0.02,2.30353
0.02,2.361258
0.02,2.414079
0.02,2.4607
0.02,2.515313
0.02,2.56363
0.02,2.59998
0.02,2.649598
0.02,2.695988
0.02,2.74066
0.02,2.78083
0.02,2.82119
0.02,2.86596
0.02,2.90443
0.02,2.94777
0.02,2.94954