File: charging_cycle_255.csv
control/mA,Ewe/V
-0.08,-5.346534
-0.08,-5.377009
-0.08,-5.399908
-0.08,-5.424887
-0.08,-5.445707
-0.08,-5.46513
-0.08,-5.48256
-0.08,-5.499043
-0.08,-5.51481
-0.08,-5.522381
0.08,-4.733629
0.08,-3.72891
0.08,-2.728728
0.08,-1.728631
0.08,-0.7285819
0.08,0.173649
0.08,0.586472
0.08,0.801839
0.08,0.905993
0.08,0.9794804
0.08,1.03972
0.08,1.11243
0.08,1.17243
0.08,1.25259
0.08,1.350773
0.08,1.47798
0.08,1.6353
0.08,1.81206
0.08,1.97073
0.08,2.09156
0.08,2.19316
0.08,2.28981
0.08,2.39971
0.08,2.51961
0.08,2.6562
0.08,2.820541
0.08,2.98324
0.08,3.149069
0.08,3.32455
0.08,3.4941
0.08,3.65052
0.08,3.78973
0.08,3.91827
0.08,4.035977
0.08,4.15517
0.08,4.269558
0.08,4.379875
0.08,4.483628
0.08,4.5794
0.08,4.66314
0.08,4.744336
0.08,4.81738
0.08,4.882533
0.08,4.94272
0.08,4.99768
0.08,5.048152
0.08,5.09506
0.08,5.14093
0.08,5.1837
0.08,5.222587
0.08,5.255734
0.08,5.28604
0.08,5.310864
0.08,5.3331
0.08,5.351701
0.08,5.367387
0.08,5.38063
0.08,5.392309
0.08,5.4012
0.08,5.40588
0.08,5.415991
0.08,5.42204
0.08,5.420838
0.08,5.43068
0.08,5.43215