File: charging_cycle_75.csv
control/mA,Ewe/V
-0.01,-0.584635
-0.01,-0.587535
-0.01,-0.591276
-0.01,-0.595054
-0.01,-0.5980691
-0.01,-0.601962
-0.01,-0.6055495
-0.01,-0.6085646
-0.01,-0.611427
-0.01,-0.6157397
0.01,-0.3325035
0.01,0.2092445
0.01,0.259184
0.01,0.288629
0.01,0.309219
0.01,0.325916
0.01,0.340266
0.01,0.352327
0.01,0.364063
0.01,0.374844
0.01,0.385149
0.01,0.394175
0.01,0.402896
0.01,0.411407
0.01,0.4191735
0.01,0.426864
0.01,0.433944
0.01,0.440928
0.01,0.448008
0.01,0.4552017
0.01,0.461804
0.01,0.467873
0.01,0.473788
0.01,0.479685
0.01,0.4852379
0.01,0.4909627
0.01,0.496344
0.01,0.502012
0.01,0.507412
0.01,0.513156
0.01,0.518213
0.01,0.5236514
0.01,0.528708
0.01,0.533689
0.01,0.5392802
0.01,0.5444325
0.01,0.549356
0.01,0.554317
0.01,0.5592789
0.01,0.564088
0.01,0.5686103
0.01,0.5738008
0.01,0.5789722
0.01,0.583476
0.01,0.5880556
0.01,0.592864
0.01,0.597101
0.01,0.601757
0.01,0.606356
0.01,0.6110694
0.01,0.6161263
0.01,0.6202673
0.01,0.624828
0.01,0.6293315
0.01,0.6338923
0.01,0.6384913
0.01,0.642594
0.01,0.64725
0.01,0.6521736
0.01,0.6562191
0.01,0.6608562