File: charging_cycle_115.csv
control/mA,Ewe/V
-0.02,-1.59321
-0.02,-1.62953
-0.02,-1.66678
-0.02,-1.70168
-0.02,-1.73817
-0.02,-1.77303
-0.02,-1.80843
-0.02,-1.8445
-0.02,-1.87764
-0.02,-1.893595
0.02,-1.20779
0.02,-0.207643
0.02,0.432207
0.02,0.486936
0.02,0.5215714
0.02,0.5494322
0.02,0.573476
0.02,0.5970245
0.02,0.619981
0.02,0.643796
0.02,0.668451
0.02,0.6948425
0.02,0.7226842
0.02,0.750182
0.02,0.776669
0.02,0.8000647
0.02,0.8223151
0.02,0.8436878
0.02,0.864774
0.02,0.8850782
0.02,0.9068134
0.02,0.9293501
0.02,0.9537
0.02,0.979786
0.02,1.00799
0.02,1.03879
0.02,1.07022
0.02,1.10443
0.02,1.14065
0.02,1.17989
0.02,1.22128
0.02,1.2662
0.02,1.31165
0.02,1.36167
0.02,1.41476
0.02,1.47054
0.02,1.52872
0.02,1.583773
0.02,1.64947
0.02,1.71449
0.02,1.78477
0.02,1.856217
0.02,1.92608
0.02,1.99396
0.02,2.0568
0.02,2.11427
0.02,2.17377
0.02,2.223271
0.02,2.26815
0.02,2.318322
0.02,2.369979
0.02,2.41146
0.02,2.455393
0.02,2.4993
0.02,2.5443
0.02,2.58647
0.02,2.62889
0.02,2.66683
0.02,2.70765
0.02,2.75024
0.02,2.79039
0.02,2.825388