File: charging_cycle_127.csv
control/mA,Ewe/V
-0.02,-2.1648
-0.02,-2.20505
-0.02,-2.240525
-0.02,-2.27569
-0.02,-2.3067
-0.02,-2.33678
-0.02,-2.36597
-0.02,-2.39179
-0.02,-2.41874
-0.02,-2.42994
0.02,-1.70387
0.02,-0.7038507
0.02,0.296185
0.02,0.4277035
0.02,0.4913253
0.02,0.527697
0.02,0.5550616
0.02,0.579468
0.02,0.6039897
0.02,0.6291025
0.02,0.655933
0.02,0.684099
0.02,0.71446
0.02,0.7450301
0.02,0.7738259
0.02,0.8023355
0.02,0.8274865
0.02,0.8517216
0.02,0.875728
0.02,0.8979972
0.02,0.9208965
0.02,0.9453414
0.02,0.9710649
0.02,0.999975
0.02,1.02982
0.02,1.062891
0.02,1.094263
0.02,1.12537
0.02,1.17006
0.02,1.21263
0.02,1.25357
0.02,1.3008
0.02,1.34028
0.02,1.39058
0.02,1.44701
0.02,1.507194
0.02,1.56998
0.02,1.63795
0.02,1.70539
0.02,1.77784
0.02,1.85286
0.02,1.926346
0.02,2.00146
0.02,2.072806
0.02,2.14076
0.02,2.19936
0.02,2.25913
0.02,2.317234
0.02,2.37162
0.02,2.42158
0.02,2.469953
0.02,2.51942
0.02,2.566378
0.02,2.609028
0.02,2.65706
0.02,2.70177
0.02,2.74457
0.02,2.790562
0.02,2.833708
0.02,2.87611
0.02,2.91731
0.02,2.95996
0.02,2.96345