File: charging_cycle_187.csv
control/mA,Ewe/V
-0.08,-5.11924
-0.08,-5.14622
-0.08,-5.174942
-0.08,-5.202631
-0.08,-5.22744
-0.08,-5.25164
-0.08,-5.27444
-0.08,-5.294896
-0.08,-5.315887
-0.08,-5.318616
0.08,-4.495089
0.08,-3.49478
0.08,-2.49475
0.08,-1.49468
0.08,-0.494666
0.08,0.4501257
0.08,0.9438911
0.08,1.0665
0.08,1.15779
0.08,1.26553
0.08,1.38598
0.08,1.52111
0.08,1.68394
0.08,1.861522
0.08,2.0014
0.08,2.0905
0.08,2.155205
0.08,2.20869
0.08,2.258364
0.08,2.31149
0.08,2.37378
0.08,2.44717
0.08,2.53361
0.08,2.62969
0.08,2.733123
0.08,2.845711
0.08,2.96442
0.08,3.08848
0.08,3.21731
0.08,3.3503
0.08,3.48389
0.08,3.614344
0.08,3.74233
0.08,3.8719
0.08,4.0072
0.08,4.14484
0.08,4.279481
0.08,4.40859
0.08,4.52635
0.08,4.631729
0.08,4.71882
0.08,4.79294
0.08,4.8575
0.08,4.914764
0.08,4.96774
0.08,5.016933
0.08,5.06254
0.08,5.106908
0.08,5.15097
0.08,5.19268
0.08,5.23304
0.08,5.271382
0.08,5.30962
0.08,5.34714
0.08,5.38183
0.08,5.408663
0.08,5.431371
0.08,5.45013
0.08,5.46574
0.08,5.478811
0.08,5.48936
0.08,5.497703
0.08,5.503046
0.08,5.50915
0.08,5.51108