File: charging_cycle_157.csv
control/mA,Ewe/V
-0.04,-3.09524
-0.04,-3.12606
-0.04,-3.15535
-0.04,-3.18485
-0.04,-3.21231
-0.04,-3.23981
-0.04,-3.26614
-0.04,-3.29126
-0.04,-3.31593
-0.04,-3.33458
0.04,-2.68103
0.04,-1.681
0.04,-0.680971
0.04,0.319085
0.04,0.668451
0.04,0.791592
0.04,0.87422
0.04,0.953929
0.04,1.03564
0.04,1.11211
0.04,1.18794
0.04,1.268908
0.04,1.36037
0.04,1.463132
0.04,1.57816
0.04,1.69613
0.04,1.8187
0.04,1.92875
0.04,2.02172
0.04,2.09269
0.04,2.14507
0.04,2.190031
0.04,2.22772
0.04,2.26684
0.04,2.30594
0.04,2.34748
0.04,2.3925
0.04,2.43776
0.04,2.49049
0.04,2.54506
0.04,2.60407
0.04,2.66857
0.04,2.73723
0.04,2.81982
0.04,2.90739
0.04,2.99977
0.04,3.09749
0.04,3.1979
0.04,3.30072
0.04,3.410426
0.04,3.52313
0.04,3.64255
0.04,3.77067
0.04,3.905489
0.04,4.031454
0.04,4.12822
0.04,4.21023
0.04,4.277363
0.04,4.33242
0.04,4.37213
0.04,4.41974
0.04,4.45317
0.04,4.48783
0.04,4.51561
0.04,4.54351
0.04,4.569939
0.04,4.59404
0.04,4.61891
0.04,4.64016
0.04,4.66396
0.04,4.685924
0.04,4.705751
0.04,4.720826