File: charging_cycle_35.csv
control/mA,Ewe/V
-0.01,-0.6567294
-0.01,-0.656958
-0.01,-0.6574927
-0.01,-0.658046
-0.01,-0.6580843
-0.01,-0.6584277
-0.01,-0.658809
-0.01,-0.658943
-0.01,-0.6591911
-0.01,-0.6589048
0.01,-0.302766
0.01,0.2736296
0.01,0.315306
0.01,0.3428617
0.01,0.364769
0.01,0.382706
0.01,0.398431
0.01,0.4119221
0.01,0.423658
0.01,0.43381
0.01,0.44297
0.01,0.451175
0.01,0.458446
0.01,0.4651438
0.01,0.471308
0.01,0.477204
0.01,0.482452
0.01,0.487146
0.01,0.491421
0.01,0.495695
0.01,0.499455
0.01,0.5031566
0.01,0.5066487
0.01,0.509816
0.01,0.512908
0.01,0.515904
0.01,0.5185945
0.01,0.5212088
0.01,0.5234797
0.01,0.5259414
0.01,0.5280977
0.01,0.53014
0.01,0.532372
0.01,0.534586
0.01,0.536551
0.01,0.5385169
0.01,0.5402725
0.01,0.5421044
0.01,0.5436692
0.01,0.5454439
0.01,0.547028
0.01,0.548497
0.01,0.550119
0.01,0.551455
0.01,0.552695
0.01,0.55426
0.01,0.555539
0.01,0.5568363
0.01,0.5580194
0.01,0.5593552
0.01,0.560462
0.01,0.5615497
0.01,0.562828
0.01,0.5638778
0.01,0.564813
0.01,0.5659388
0.01,0.567026
0.01,0.5678661
0.01,0.568877
0.01,0.5699652
0.01,0.5708239