File: charging_cycle_194.csv
control/mA,Ewe/V
-0.08,-5.27503
-0.08,-5.31094
-0.08,-5.344091
-0.08,-5.371895
-0.08,-5.390252
-0.08,-5.40809
-0.08,-5.42325
-0.08,-5.432215
-0.08,-5.445382
-0.08,-5.45468
0.08,-4.653475
0.08,-3.65346
0.08,-2.65339
0.08,-1.65335
0.08,-0.653205
0.08,0.346812
0.08,0.863114
0.08,1.00419
0.08,1.08266
0.08,1.16653
0.08,1.264977
0.08,1.378233
0.08,1.5108
0.08,1.676534
0.08,1.86587
0.08,2.01541
0.08,2.106506
0.08,2.17322
0.08,2.23214
0.08,2.29142
0.08,2.3549
0.08,2.42893
0.08,2.51713
0.08,2.62069
0.08,2.74295
0.08,2.87783
0.08,3.02068
0.08,3.162179
0.08,3.310528
0.08,3.462102
0.08,3.6094
0.08,3.74762
0.08,3.8783
0.08,4.004624
0.08,4.137249
0.08,4.271123
0.08,4.409587
0.08,4.544044
0.08,4.663273
0.08,4.766491
0.08,4.85099
0.08,4.91908
0.08,4.97705
0.08,5.02936
0.08,5.07611
0.08,5.11834
0.08,5.160015
0.08,5.199478
0.08,5.2374
0.08,5.272069
0.08,5.30201
0.08,5.325863
0.08,5.344774
0.08,5.36059
0.08,5.374085
0.08,5.38571
0.08,5.39538
0.08,5.404064
0.08,5.41181
0.08,5.419063
0.08,5.42517
0.08,5.43023
0.08,5.434921
0.08,5.43902
0.08,5.440283