File: charging_cycle_69.csv
control/mA,Ewe/V
-0.01,-0.5624607
-0.01,-0.56517
-0.01,-0.569655
-0.01,-0.5729944
-0.01,-0.5764865
-0.01,-0.5799405
-0.01,-0.583223
-0.01,-0.585513
-0.01,-0.588757
-0.01,-0.5920962
0.01,-0.315671
0.01,0.2112291
0.01,0.2601572
0.01,0.2887622
0.01,0.3099631
0.01,0.327157
0.01,0.3419076
0.01,0.354426
0.01,0.3669441
0.01,0.377993
0.01,0.388069
0.01,0.39761
0.01,0.406693
0.01,0.415395
0.01,0.422895
0.01,0.430528
0.01,0.4374166
0.01,0.444668
0.01,0.451328
0.01,0.457205
0.01,0.463961
0.01,0.469991
0.01,0.475926
0.01,0.481669
0.01,0.487146
0.01,0.492585
0.01,0.498214
0.01,0.5035001
0.01,0.508939
0.01,0.5139765
0.01,0.5192242
0.01,0.5242239
0.01,0.529338
0.01,0.533994
0.01,0.5389558
0.01,0.5435929
0.01,0.548478
0.01,0.5531915
0.01,0.5581912
0.01,0.5623703
0.01,0.567255
0.01,0.571988
0.01,0.5767205
0.01,0.5810332
0.01,0.5857466
0.01,0.590536
0.01,0.5952689
0.01,0.599677
0.01,0.6038561
0.01,0.6076345
0.01,0.6122334
0.01,0.616527
0.01,0.620477
0.01,0.6246181
0.01,0.6286446
0.01,0.632747
0.01,0.636755
0.01,0.641144
0.01,0.645361
0.01,0.649693
0.01,0.6539101