File: charging_cycle_124.csv
control/mA,Ewe/V
-0.02,-2.01914
-0.02,-2.0624
-0.02,-2.10475
-0.02,-2.14587
-0.02,-2.18094
-0.02,-2.2174
-0.02,-2.25064
-0.02,-2.28144
-0.02,-2.31096
-0.02,-2.3256
0.02,-1.61201
0.02,-0.6118529
0.02,0.379768
0.02,0.469819
0.02,0.509587
0.02,0.5372
0.02,0.561378
0.02,0.584296
0.02,0.6077299
0.02,0.6325374
0.02,0.6583182
0.02,0.685511
0.02,0.7139825
0.02,0.7424921
0.02,0.770811
0.02,0.797145
0.02,0.8217808
0.02,0.8447182
0.02,0.866663
0.02,0.888494
0.02,0.911336
0.02,0.9344643
0.02,0.9603023
0.02,0.9874951
0.02,1.01641
0.02,1.04854
0.02,1.08239
0.02,1.11798
0.02,1.15449
0.02,1.19403
0.02,1.23616
0.02,1.28223
0.02,1.33055
0.02,1.3823
0.02,1.43632
0.02,1.494981
0.02,1.55652
0.02,1.62026
0.02,1.68882
0.02,1.75966
0.02,1.82904
0.02,1.90482
0.02,1.97903
0.02,2.052292
0.02,2.12185
0.02,2.18675
0.02,2.24741
0.02,2.30468
0.02,2.358052
0.02,2.40816
0.02,2.4599
0.02,2.507069
0.02,2.555501
0.02,2.6009
0.02,2.6482
0.02,2.69009
0.02,2.73553
0.02,2.779303
0.02,2.82197
0.02,2.86374
0.02,2.90181
0.02,2.93998