File: charging_cycle_177.csv
control/mA,Ewe/V
-0.08,-5.534212
-0.08,-5.549345
-0.08,-5.56425
-0.08,-5.57742
-0.08,-5.588827
-0.08,-5.598101
-0.08,-5.60673
-0.08,-5.61543
-0.08,-5.621878
-0.08,-5.624645
0.08,-4.616283
0.08,-3.616
0.08,-2.61595
0.08,-1.61593
0.08,-0.615822
0.08,0.384214
0.08,0.7130093
0.08,0.772433
0.08,0.82304
0.08,0.887215
0.08,0.9708932
0.08,1.08634
0.08,1.23107
0.08,1.40413
0.08,1.603619
0.08,1.81612
0.08,1.987964
0.08,2.09527
0.08,2.16723
0.08,2.22272
0.08,2.27052
0.08,2.31901
0.08,2.36925
0.08,2.41956
0.08,2.47255
0.08,2.52911
0.08,2.59128
0.08,2.66082
0.08,2.73641
0.08,2.81791
0.08,2.90395
0.08,2.99746
0.08,3.098767
0.08,3.20826
0.08,3.32532
0.08,3.45077
0.08,3.58261
0.08,3.72262
0.08,3.87459
0.08,4.0442
0.08,4.21981
0.08,4.38966
0.08,4.54141
0.08,4.669036
0.08,4.77853
0.08,4.868202
0.08,4.94833
0.08,4.97791
0.08,5.043362
0.08,5.104446
0.08,5.150626
0.08,5.18994
0.08,5.220202
0.08,5.25106
0.08,5.28174
0.08,5.310597
0.08,5.338992
0.08,5.36708
0.08,5.391374
0.08,5.411506
0.08,5.423452
0.08,5.44135
0.08,5.46209
0.08,5.47757
0.08,5.48362