File: charging_cycle_106.csv
control/mA,Ewe/V
-0.02,-1.40206
-0.02,-1.431526
-0.02,-1.46328
-0.02,-1.49562
-0.02,-1.52694
-0.02,-1.557701
-0.02,-1.59028
-0.02,-1.62064
-0.02,-1.6526
-0.02,-1.658534
0.02,-0.9858432
0.02,0.0142191
0.02,0.448752
0.02,0.5033283
0.02,0.5389749
0.02,0.566702
0.02,0.589983
0.02,0.6125006
0.02,0.635381
0.02,0.659349
0.02,0.684442
0.02,0.710414
0.02,0.7358513
0.02,0.759781
0.02,0.780753
0.02,0.8009997
0.02,0.8195099
0.02,0.83741
0.02,0.8556145
0.02,0.8731515
0.02,0.8919098
0.02,0.910649
0.02,0.9309721
0.02,0.95202
0.02,0.97345
0.02,0.996559
0.02,1.02112
0.02,1.047434
0.02,1.07352
0.02,1.10232
0.02,1.13222
0.02,1.16411
0.02,1.19844
0.02,1.23317
0.02,1.26961
0.02,1.30818
0.02,1.34761
0.02,1.38943
0.02,1.43275
0.02,1.47758
0.02,1.5217
0.02,1.56685
0.02,1.61392
0.02,1.66333
0.02,1.71247
0.02,1.76237
0.02,1.81214
0.02,1.86167
0.02,1.91146
0.02,1.96052
0.02,2.00972
0.02,2.056013
0.02,2.10156
0.02,2.144557
0.02,2.18671
0.02,2.22798
0.02,2.26766
0.02,2.30252
0.02,2.34431
0.02,2.38059
0.02,2.418926
0.02,2.4523