File: charging_cycle_195.csv
control/mA,Ewe/V
-0.08,-5.226389
-0.08,-5.26207
-0.08,-5.29621
-0.08,-5.32776
-0.08,-5.35552
-0.08,-5.378421
-0.08,-5.397847
-0.08,-5.413533
-0.08,-5.42807
-0.08,-5.437253
0.08,-4.673834
0.08,-3.67338
0.08,-2.67325
0.08,-1.6732
0.08,-0.67307
0.08,0.326985
0.08,0.862198
0.08,1.004994
0.08,1.07968
0.08,1.16151
0.08,1.25752
0.08,1.367184
0.08,1.49592
0.08,1.65959
0.08,1.85061
0.08,2.0077
0.08,2.10177
0.08,2.17267
0.08,2.23379
0.08,2.293877
0.08,2.36576
0.08,2.447
0.08,2.543765
0.08,2.65819
0.08,2.78509
0.08,2.929637
0.08,3.07902
0.08,3.23382
0.08,3.39272
0.08,3.54843
0.08,3.701571
0.08,3.84355
0.08,3.98035
0.08,4.118586
0.08,4.259616
0.08,4.4068
0.08,4.548261
0.08,4.67707
0.08,4.78666
0.08,4.877629
0.08,4.95409
0.08,5.018326
0.08,5.07428
0.08,5.12517
0.08,5.171102
0.08,5.21408
0.08,5.25468
0.08,5.292506
0.08,5.324928
0.08,5.349678
0.08,5.36884
0.08,5.383722
0.08,5.39656
0.08,5.40767
0.08,5.41738
0.08,5.4263
0.08,5.434005
0.08,5.440359
0.08,5.44591
0.08,5.45076
0.08,5.45267
0.08,5.458488
0.08,5.46393
0.08,5.468411
0.08,5.47036