File: charging_cycle_248.csv
control/mA,Ewe/V
-0.08,-6.41626
-0.08,-6.48019
-0.08,-6.544915
-0.08,-6.611323
-0.08,-6.67874
-0.08,-6.74265
-0.08,-6.797227
-0.08,-6.84885
-0.08,-6.902334
-0.08,-6.937924
0.08,-5.84241
0.08,-4.80524
0.08,-3.79385
0.08,-2.79384
0.08,-1.79384
0.08,-0.7937494
0.08,0.1197786
0.08,0.514358
0.08,0.7471483
0.08,0.8655756
0.08,0.9524402
0.08,1.045354
0.08,1.14304
0.08,1.2528
0.08,1.37243
0.08,1.51271
0.08,1.694758
0.08,1.91867
0.08,2.13383
0.08,2.2972
0.08,2.43536
0.08,2.57962
0.08,2.74295
0.08,2.92658
0.08,3.12346
0.08,3.32129
0.08,3.52378
0.08,3.71649
0.08,3.89637
0.08,4.069009
0.08,4.238873
0.08,4.409988
0.08,4.57437
0.08,4.71772
0.08,4.8388
0.08,4.94001
0.08,5.027791
0.08,5.104828
0.08,5.17519
0.08,5.24089
0.08,5.302754
0.08,5.361128
0.08,5.41687
0.08,5.469117
0.08,5.51722
0.08,5.56131
0.08,5.60121
0.08,5.636148
0.08,5.666127
0.08,5.693148
0.08,5.71376
0.08,5.73799
0.08,5.75616
0.08,5.77156
0.08,5.78547
0.08,5.797874
0.08,5.80854
0.08,5.81858
0.08,5.82749
0.08,5.83596
0.08,5.822338
0.08,5.84453
0.08,5.84711
0.08,5.85501
0.08,5.860904
0.08,5.86209