File: charging_cycle_154.csv
control/mA,Ewe/V
-0.04,-2.80833
-0.04,-2.83774
-0.04,-2.86926
-0.04,-2.89844
-0.04,-2.92651
-0.04,-2.95263
-0.04,-2.97819
-0.04,-3.00313
-0.04,-3.02753
-0.04,-3.042915
0.04,-2.39889
0.04,-1.39881
0.04,-0.398699
0.04,0.382497
0.04,0.6383195
0.04,0.7608687
0.04,0.8497942
0.04,0.931048
0.04,1.0106
0.04,1.08499
0.04,1.15453
0.04,1.229903
0.04,1.31383
0.04,1.40831
0.04,1.51305
0.04,1.62993
0.04,1.74529
0.04,1.859213
0.04,1.96358
0.04,2.04462
0.04,2.10462
0.04,2.15087
0.04,2.18854
0.04,2.22329
0.04,2.256284
0.04,2.29084
0.04,2.325726
0.04,2.36416
0.04,2.40498
0.04,2.44923
0.04,2.497108
0.04,2.55098
0.04,2.61059
0.04,2.67899
0.04,2.756671
0.04,2.84354
0.04,2.934312
0.04,3.027226
0.04,3.121342
0.04,3.22229
0.04,3.32352
0.04,3.42892
0.04,3.53925
0.04,3.65512
0.04,3.778398
0.04,3.89843
0.04,4.00075
0.04,4.06861
0.04,4.15631
0.04,4.219676
0.04,4.271867
0.04,4.3181
0.04,4.35846
0.04,4.39585
0.04,4.429872
0.04,4.463572
0.04,4.494219
0.04,4.5229
0.04,4.55322
0.04,4.5795
0.04,4.604918
0.04,4.628332
0.04,4.6393