File: charging_cycle_22.csv
control/mA,Ewe/V
-0.01,-2.09513
-0.01,-2.10831
-0.01,-2.12072
-0.01,-2.133026
-0.01,-2.145544
-0.01,-2.15728
-0.01,-2.16961
-0.01,-2.18203
-0.01,-2.19445
-0.01,-2.20606
0.01,-0.906971
0.01,0.115472
0.01,1.1155
0.01,1.16907
0.01,1.20706
0.01,1.23738
0.01,1.26292
0.01,1.28534
0.01,1.30562
0.01,1.32343
0.01,1.34035
0.01,1.35636
0.01,1.37112
0.01,1.38503
0.01,1.39858
0.01,1.41184
0.01,1.42466
0.01,1.4375
0.01,1.44983
0.01,1.46212
0.01,1.47365
0.01,1.48605
0.01,1.49815
0.01,1.5112
0.01,1.52303
0.01,1.53525
0.01,1.5474
0.01,1.56009
0.01,1.57288
0.01,1.585395
0.01,1.59822
0.01,1.61091
0.01,1.62362
0.01,1.63614
0.01,1.64791
0.01,1.6606
0.01,1.67314
0.01,1.68556
0.01,1.6985
0.01,1.71022
0.01,1.72327
0.01,1.73594
0.01,1.74844
0.01,1.76092
0.01,1.77262
0.01,1.78469
0.01,1.79752
0.01,1.81002
0.01,1.82181
0.01,1.83378
0.01,1.84624
0.01,1.85841
0.01,1.87047
0.01,1.88173
0.01,1.89404
0.01,1.90562
0.01,1.91774
0.01,1.92869
0.01,1.94033
0.01,1.95203
0.01,1.96379
0.01,1.97529
0.01,1.984491