File: charging_cycle_52.csv
control/mA,Ewe/V
-0.01,-0.5096016
-0.01,-0.5122541
-0.01,-0.514506
-0.01,-0.517273
-0.01,-0.5197536
-0.01,-0.5224633
-0.01,-0.524887
-0.01,-0.527272
-0.01,-0.529753
-0.01,-0.5317948
0.01,-0.2766358
0.01,0.200524
0.01,0.245597
0.01,0.273668
0.01,0.294525
0.01,0.311223
0.01,0.3261834
0.01,0.339236
0.01,0.350857
0.01,0.361372
0.01,0.3711614
0.01,0.3801112
0.01,0.388603
0.01,0.396599
0.01,0.403965
0.01,0.4110252
0.01,0.4178
0.01,0.424345
0.01,0.43049
0.01,0.4368441
0.01,0.442588
0.01,0.4477976
0.01,0.453351
0.01,0.45835
0.01,0.463579
0.01,0.468083
0.01,0.47291
0.01,0.477452
0.01,0.482013
0.01,0.4864592
0.01,0.491039
0.01,0.495352
0.01,0.4995881
0.01,0.5037291
0.01,0.507488
0.01,0.511343
0.01,0.514835
0.01,0.51869
0.01,0.522297
0.01,0.5256933
0.01,0.5291854
0.01,0.5324486
0.01,0.536017
0.01,0.5395664
0.01,0.5426387
0.01,0.5456729
0.01,0.548612
0.01,0.551684
0.01,0.5547181
0.01,0.557695
0.01,0.560424
0.01,0.5636107
0.01,0.566778
0.01,0.569679
0.01,0.572484
0.01,0.5754229
0.01,0.5778654
0.01,0.5805943
0.01,0.583151
0.01,0.5855367
0.01,0.5875404