File: charging_cycle_229.csv
control/mA,Ewe/V
-0.08,-6.55516
-0.08,-6.6131
-0.08,-6.67302
-0.08,-6.72889
-0.08,-6.782
-0.08,-6.82879
-0.08,-6.874932
-0.08,-6.92176
-0.08,-6.96834
-0.08,-6.99695
0.08,-5.89972
0.08,-4.857735
0.08,-3.83855
0.08,-2.83727
0.08,-1.83718
0.08,-0.8371817
0.08,0.131743
0.08,0.548077
0.08,0.8060757
0.08,0.9351703
0.08,1.0273
0.08,1.117334
0.08,1.21063
0.08,1.309039
0.08,1.42041
0.08,1.55408
0.08,1.73384
0.08,1.940677
0.08,2.12439
0.08,2.26687
0.08,2.38671
0.08,2.51987
0.08,2.671772
0.08,2.847066
0.08,3.03085
0.08,3.219408
0.08,3.41627
0.08,3.60988
0.08,3.78952
0.08,3.953902
0.08,4.11223
0.08,4.270684
0.08,4.43327
0.08,4.586083
0.08,4.7234
0.08,4.834044
0.08,4.93146
0.08,5.011666
0.08,5.081375
0.08,5.14446
0.08,5.20434
0.08,5.25932
0.08,5.310921
0.08,5.360002
0.08,5.407537
0.08,5.45173
0.08,5.490318
0.08,5.52486
0.08,5.55478
0.08,5.57907
0.08,5.60052
0.08,5.620176
0.08,5.635881
0.08,5.64983
0.08,5.66376
0.08,5.67704
0.08,5.68836
0.08,5.69969
0.08,5.709273
0.08,5.71862
0.08,5.72673
0.08,5.7291
0.08,5.73872
0.08,5.7466
0.08,5.75085
0.08,5.754556