File: charging_cycle_144.csv
control/mA,Ewe/V
-0.04,-2.47975
-0.04,-2.49787
-0.04,-2.51638
-0.04,-2.5348
-0.04,-2.553
-0.04,-2.57121
-0.04,-2.58989
-0.04,-2.60747
-0.04,-2.626015
-0.04,-2.64231
0.04,-1.99018
0.04,-0.9901297
0.04,0.009919372
0.04,0.3937935
0.04,0.5716445
0.04,0.6805877
0.04,0.7620519
0.04,0.8368561
0.04,0.911031
0.04,0.977343
0.04,1.0339
0.04,1.08772
0.04,1.14401
0.04,1.20658
0.04,1.27576
0.04,1.34692
0.04,1.43018
0.04,1.52091
0.04,1.619534
0.04,1.72201
0.04,1.82719
0.04,1.92327
0.04,1.99938
0.04,2.05676
0.04,2.09859
0.04,2.13887
0.04,2.172265
0.04,2.20215
0.04,2.23398
0.04,2.26334
0.04,2.2964
0.04,2.32567
0.04,2.36666
0.04,2.40872
0.04,2.45406
0.04,2.50226
0.04,2.55579
0.04,2.61122
0.04,2.671524
0.04,2.7344
0.04,2.79917
0.04,2.86281
0.04,2.92813
0.04,2.99513
0.04,3.0611
0.04,3.12543
0.04,3.18695
0.04,3.24721
0.04,3.30545
0.04,3.36251
0.04,3.418288
0.04,3.47159
0.04,3.52141
0.04,3.57267
0.04,3.6202
0.04,3.66524
0.04,3.69842
0.04,3.7429
0.04,3.78365
0.04,3.81811
0.04,3.855664
0.04,3.891387