File: charging_cycle_29.csv
control/mA,Ewe/V
-0.01,-2.14751
-0.01,-2.16087
-0.01,-2.174359
-0.01,-2.18825
-0.01,-2.20257
-0.01,-2.21534
-0.01,-2.228598
-0.01,-2.240964
-0.01,-2.253444
-0.01,-2.26619
0.01,-0.9642816
0.01,0.05734603
0.01,1.05755
0.01,1.17487
0.01,1.20433
0.01,1.23317
0.01,1.25902
0.01,1.28169
0.01,1.30309
0.01,1.32266
0.01,1.34089
0.01,1.35841
0.01,1.37434
0.01,1.39041
0.01,1.405674
0.01,1.42062
0.01,1.43489
0.01,1.44914
0.01,1.462884
0.01,1.47657
0.01,1.49084
0.01,1.50452
0.01,1.51843
0.01,1.5324
0.01,1.54622
0.01,1.56055
0.01,1.57448
0.01,1.5887
0.01,1.60276
0.01,1.61705
0.01,1.63116
0.01,1.64573
0.01,1.65968
0.01,1.67346
0.01,1.68768
0.01,1.70209
0.01,1.71613
0.01,1.729813
0.01,1.74392
0.01,1.75895
0.01,1.773
0.01,1.78721
0.01,1.80156
0.01,1.816296
0.01,1.83095
0.01,1.84523
0.01,1.85937
0.01,1.87394
0.01,1.8881
0.01,1.90221
0.01,1.91572
0.01,1.93003
0.01,1.94394
0.01,1.95778
0.01,1.97186
0.01,1.98588
0.01,1.99567
0.01,2.00771
0.01,2.02008
0.01,2.0325
0.01,2.04504
0.01,2.057616
0.01,2.06977