File: charging_cycle_196.csv
control/mA,Ewe/V
-0.08,-5.32264
-0.08,-5.35361
-0.08,-5.381417
-0.08,-5.401511
-0.08,-5.419449
-0.08,-5.435726
-0.08,-5.44889
-0.08,-5.45998
-0.08,-5.46876
-0.08,-5.475151
0.08,-4.70229
0.08,-3.70053
0.08,-2.70028
0.08,-1.7001
0.08,-0.700015
0.08,0.300078
0.08,0.8592211
0.08,1.00784
0.08,1.08272
0.08,1.16432
0.08,1.25975
0.08,1.3664
0.08,1.49345
0.08,1.65547
0.08,1.84835
0.08,2.01476
0.08,2.11507
0.08,2.18963
0.08,2.256093
0.08,2.3226
0.08,2.39694
0.08,2.485334
0.08,2.5883
0.08,2.70654
0.08,2.8384
0.08,2.98332
0.08,3.139375
0.08,3.29868
0.08,3.46317
0.08,3.62587
0.08,3.77926
0.08,3.921194
0.08,4.06023
0.08,4.198456
0.08,4.34327
0.08,4.49483
0.08,4.632645
0.08,4.75951
0.08,4.86242
0.08,4.950353
0.08,5.02428
0.08,5.08725
0.08,5.14078
0.08,5.19205
0.08,5.238903
0.08,5.28102
0.08,5.317848
0.08,5.34695
0.08,5.37025
0.08,5.38937
0.08,5.40553
0.08,5.419101
0.08,5.42998
0.08,5.43839
0.08,5.446084
0.08,5.453011
0.08,5.45954
0.08,5.46528
0.08,5.47095
0.08,5.476197
0.08,5.481559
0.08,5.4861
0.08,5.490566
0.08,5.49484
0.08,5.49694