File: charging_cycle_28.csv
control/mA,Ewe/V
-0.01,-2.14381
-0.01,-2.1581
-0.01,-2.171134
-0.01,-2.1855
-0.01,-2.199262
-0.01,-2.2123
-0.01,-2.22585
-0.01,-2.23804
-0.01,-2.251364
-0.01,-2.26325
0.01,-0.9611556
0.01,0.0590062
0.01,1.05934
0.01,1.17443
0.01,1.20489
0.01,1.23399
0.01,1.25984
0.01,1.28282
0.01,1.30404
0.01,1.32348
0.01,1.34146
0.01,1.35835
0.01,1.37468
0.01,1.39066
0.01,1.40539
0.01,1.42008
0.01,1.43415
0.01,1.44855
0.01,1.46269
0.01,1.47622
0.01,1.49008
0.01,1.5038
0.01,1.51771
0.01,1.5316
0.01,1.54515
0.01,1.55923
0.01,1.57309
0.01,1.58707
0.01,1.601081
0.01,1.615374
0.01,1.62972
0.01,1.643063
0.01,1.65713
0.01,1.671
0.01,1.684816
0.01,1.69859
0.01,1.71241
0.01,1.726817
0.01,1.74096
0.01,1.75508
0.01,1.76962
0.01,1.7841
0.01,1.797843
0.01,1.81175
0.01,1.82597
0.01,1.84013
0.01,1.85486
0.01,1.86898
0.01,1.882761
0.01,1.89675
0.01,1.91037
0.01,1.92392
0.01,1.93772
0.01,1.95108
0.01,1.96453
0.01,1.97783
0.01,1.99075
0.01,2.00365
0.01,2.016989
0.01,2.030099
0.01,2.04252
0.01,2.05498
0.01,2.06668