File: charging_cycle_116.csv
control/mA,Ewe/V
-0.02,-1.62802
-0.02,-1.66424
-0.02,-1.70149
-0.02,-1.73908
-0.02,-1.774557
-0.02,-1.81104
-0.02,-1.847224
-0.02,-1.88243
-0.02,-1.91674
-0.02,-1.93428
0.02,-1.24643
0.02,-0.2464
0.02,0.43028
0.02,0.486478
0.02,0.5201784
0.02,0.547734
0.02,0.5719498
0.02,0.59525
0.02,0.6189124
0.02,0.6427467
0.02,0.667631
0.02,0.694003
0.02,0.721711
0.02,0.748847
0.02,0.7752762
0.02,0.7993204
0.02,0.821704
0.02,0.8432107
0.02,0.86382
0.02,0.884926
0.02,0.906527
0.02,0.9298081
0.02,0.9542912
0.02,0.9797094
0.02,1.00831
0.02,1.0395
0.02,1.07176
0.02,1.106018
0.02,1.14193
0.02,1.180765
0.02,1.2224
0.02,1.26698
0.02,1.31453
0.02,1.36384
0.02,1.41756
0.02,1.47422
0.02,1.5337
0.02,1.596711
0.02,1.662661
0.02,1.729813
0.02,1.7991
0.02,1.86811
0.02,1.9407
0.02,2.00718
0.02,2.073016
0.02,2.13129
0.02,2.186539
0.02,2.24214
0.02,2.28437
0.02,2.33386
0.02,2.38587
0.02,2.432055
0.02,2.47053
0.02,2.52064
0.02,2.56207
0.02,2.606719
0.02,2.64765
0.02,2.68891
0.02,2.72959
0.02,2.76927
0.02,2.7957
0.02,2.83283