File: charging_cycle_132.csv
control/mA,Ewe/V
-0.02,-2.29836
-0.02,-2.33092
-0.02,-2.364448
-0.02,-2.39288
-0.02,-2.42086
-0.02,-2.448164
-0.02,-2.47566
-0.02,-2.502817
-0.02,-2.52623
-0.02,-2.53619
0.02,-1.797408
0.02,-0.7973942
0.02,0.202642
0.02,0.379405
0.02,0.457911
0.02,0.513175
0.02,0.5488788
0.02,0.5766823
0.02,0.602349
0.02,0.6288163
0.02,0.6559519
0.02,0.6843852
0.02,0.7142878
0.02,0.7459651
0.02,0.776402
0.02,0.8057895
0.02,0.8326961
0.02,0.858152
0.02,0.8829409
0.02,0.9071
0.02,0.9329758
0.02,0.9593863
0.02,0.9875524
0.02,1.01688
0.02,1.05072
0.02,1.08461
0.02,1.12151
0.02,1.16033
0.02,1.20174
0.02,1.24692
0.02,1.292876
0.02,1.34428
0.02,1.39529
0.02,1.45088
0.02,1.51095
0.02,1.57685
0.02,1.64344
0.02,1.71415
0.02,1.78796
0.02,1.86438
0.02,1.93839
0.02,2.0159
0.02,2.08269
0.02,2.150587
0.02,2.21264
0.02,2.27126
0.02,2.326203
0.02,2.3761
0.02,2.42364
0.02,2.47278
0.02,2.51764
0.02,2.56237
0.02,2.6062
0.02,2.65021
0.02,2.69366
0.02,2.736138
0.02,2.77909
0.02,2.81961
0.02,2.86331
0.02,2.90624
0.02,2.94748
0.02,2.98889