File: charging_cycle_217.csv
control/mA,Ewe/V
-0.08,-6.430247
-0.08,-6.466008
-0.08,-6.502704
-0.08,-6.539629
-0.08,-6.575295
-0.08,-6.610655
-0.08,-6.64126
-0.08,-6.675555
-0.08,-6.7034
-0.08,-6.72658
0.08,-5.41494
0.08,-4.3392
0.08,-3.33882
0.08,-2.33881
0.08,-1.33869
0.08,-0.338627
0.08,0.5832086
0.08,0.959348
0.08,1.11632
0.08,1.17416
0.08,1.22916
0.08,1.29747
0.08,1.38266
0.08,1.48416
0.08,1.62077
0.08,1.80011
0.08,2.003116
0.08,2.19526
0.08,2.3592
0.08,2.50493
0.08,2.65107
0.08,2.80827
0.08,2.98574
0.08,3.17746
0.08,3.38247
0.08,3.58759
0.08,3.797729
0.08,3.98961
0.08,4.167743
0.08,4.334611
0.08,4.501127
0.08,4.66365
0.08,4.82403
0.08,4.96768
0.08,5.088474
0.08,5.193085
0.08,5.283194
0.08,5.35851
0.08,5.433585
0.08,5.49686
0.08,5.556649
0.08,5.60976
0.08,5.655441
0.08,5.69481
0.08,5.73177
0.08,5.764384
0.08,5.79085
0.08,5.82251
0.08,5.845829
0.08,5.868041
0.08,5.887353
0.08,5.903898
0.08,5.9188
0.08,5.9342
0.08,5.94897
0.08,5.961871
0.08,5.97185
0.08,5.983835
0.08,5.992499
0.08,6.00256
0.08,6.011734
0.08,6.020016
0.08,6.02851
0.08,6.035225
0.08,6.043068
0.08,6.04759