File: charging_cycle_253.csv
control/mA,Ewe/V
-0.08,-5.52049
-0.08,-5.5462
-0.08,-5.56906
-0.08,-5.594819
-0.08,-5.617718
-0.08,-5.641877
-0.08,-5.664356
-0.08,-5.68561
-0.08,-5.706472
-0.08,-5.718857
0.08,-4.91237
0.08,-3.90201
0.08,-2.9016
0.08,-1.90143
0.08,-0.9013187
0.08,0.05258834
0.08,0.430604
0.08,0.707189
0.08,0.8478669
0.08,0.935247
0.08,1.00081
0.08,1.06274
0.08,1.11831
0.08,1.18716
0.08,1.26105
0.08,1.35957
0.08,1.48491
0.08,1.63885
0.08,1.80298
0.08,1.94743
0.08,2.06399
0.08,2.16637
0.08,2.27025
0.08,2.37967
0.08,2.50508
0.08,2.64448
0.08,2.79602
0.08,2.95488
0.08,3.11531
0.08,3.28209
0.08,3.44432
0.08,3.59484
0.08,3.731989
0.08,3.85855
0.08,3.97852
0.08,4.09754
0.08,4.210516
0.08,4.32454
0.08,4.42825
0.08,4.52878
0.08,4.618791
0.08,4.70169
0.08,4.7755
0.08,4.8417
0.08,4.90045
0.08,4.959
0.08,5.01315
0.08,5.061548
0.08,5.1062
0.08,5.149348
0.08,5.19102
0.08,5.229648
0.08,5.26442
0.08,5.29621
0.08,5.32298
0.08,5.344068
0.08,5.361624
0.08,5.375974
0.08,5.38824
0.08,5.3978
0.08,5.40622
0.08,5.41288
0.08,5.419349
0.08,5.425704
0.08,5.42839