File: charging_cycle_89.csv
control/mA,Ewe/V
-0.01,-0.62427
-0.01,-0.630052
-0.01,-0.6339064
-0.01,-0.6373604
-0.01,-0.643391
-0.01,-0.646005
-0.01,-0.650356
-0.01,-0.6538097
-0.01,-0.657645
-0.01,-0.662359
0.01,-0.362962
0.01,0.213424
0.01,0.2638211
0.01,0.2935138
0.01,0.314219
0.01,0.3322899
0.01,0.347766
0.01,0.3611239
0.01,0.372898
0.01,0.3845193
0.01,0.395606
0.01,0.406178
0.01,0.4154142
0.01,0.424822
0.01,0.4336
0.01,0.4427216
0.01,0.451175
0.01,0.45898
0.01,0.467052
0.01,0.4746661
0.01,0.481746
0.01,0.488959
0.01,0.495695
0.01,0.502317
0.01,0.508843
0.01,0.5151596
0.01,0.5217432
0.01,0.5280023
0.01,0.534471
0.01,0.5402343
0.01,0.546055
0.01,0.552218
0.01,0.5583057
0.01,0.5643167
0.01,0.570385
0.01,0.5757282
0.01,0.5820064
0.01,0.587731
0.01,0.5939331
0.01,0.5994671
0.01,0.6053446
0.01,0.61063
0.01,0.6158973
0.01,0.622519
0.01,0.6284919
0.01,0.6343312
0.01,0.6403423
0.01,0.646143
0.01,0.651735
0.01,0.6568298
0.01,0.6632797
0.01,0.6683557
0.01,0.673813
0.01,0.680416
0.01,0.686771
0.01,0.691923
0.01,0.69801
0.01,0.7034679
0.01,0.7103186
0.01,0.7165205
0.01,0.722532