File: charging_cycle_141.csv
control/mA,Ewe/V
-0.04,-2.45442
-0.04,-2.47274
-0.04,-2.491749
-0.04,-2.508828
-0.04,-2.52699
-0.04,-2.54314
-0.04,-2.56043
-0.04,-2.57768
-0.04,-2.59382
-0.04,-2.60355
0.04,-1.92598
0.04,-0.925878
0.04,0.04228367
0.04,0.3613338
0.04,0.532811
0.04,0.640495
0.04,0.718104
0.04,0.786172
0.04,0.8553091
0.04,0.919465
0.04,0.974194
0.04,1.02177
0.04,1.07054
0.04,1.1205
0.04,1.17452
0.04,1.23803
0.04,1.30805
0.04,1.38405
0.04,1.46979
0.04,1.56414
0.04,1.670752
0.04,1.77996
0.04,1.88217
0.04,1.96842
0.04,2.037064
0.04,2.08845
0.04,2.13286
0.04,2.17164
0.04,2.20617
0.04,2.24495
0.04,2.276
0.04,2.31886
0.04,2.36191
0.04,2.406732
0.04,2.45495
0.04,2.503844
0.04,2.55493
0.04,2.60702
0.04,2.660475
0.04,2.7162
0.04,2.775086
0.04,2.83621
0.04,2.89794
0.04,2.95912
0.04,3.01929
0.04,3.0765
0.04,3.13086
0.04,3.1838
0.04,3.23273
0.04,3.285644
0.04,3.33629
0.04,3.38335
0.04,3.43167
0.04,3.47748
0.04,3.52051
0.04,3.56274
0.04,3.60431
0.04,3.64243
0.04,3.67835
0.04,3.71636
0.04,3.75056
0.04,3.77846