File: charging_cycle_14.csv
control/mA,Ewe/V
-0.01,-1.97889
-0.01,-1.99063
-0.01,-2.00212
-0.01,-2.01326
-0.01,-2.02406
-0.01,-2.035246
-0.01,-2.046295
-0.01,-2.05702
-0.01,-2.06816
-0.01,-2.07872
0.01,-0.795717
0.01,0.215752
0.01,1.09048
0.01,1.132772
0.01,1.16248
0.01,1.185841
0.01,1.20622
0.01,1.22441
0.01,1.24038
0.01,1.25589
0.01,1.27013
0.01,1.28284
0.01,1.29568
0.01,1.30789
0.01,1.31957
0.01,1.33045
0.01,1.34163
0.01,1.35211
0.01,1.3631
0.01,1.37348
0.01,1.38428
0.01,1.39506
0.01,1.405674
0.01,1.41617
0.01,1.427142
0.01,1.43787
0.01,1.44842
0.01,1.45916
0.01,1.470059
0.01,1.480879
0.01,1.491279
0.01,1.50208
0.01,1.51294
0.01,1.52326
0.01,1.53381
0.01,1.54395
0.01,1.554233
0.01,1.565072
0.01,1.57536
0.01,1.58547
0.01,1.59587
0.01,1.60587
0.01,1.61616
0.01,1.62665
0.01,1.63644
0.01,1.64614
0.01,1.65579
0.01,1.66575
0.01,1.67579
0.01,1.685045
0.01,1.6951
0.01,1.70487
0.01,1.71462
0.01,1.72441
0.01,1.73392
0.01,1.74372
0.01,1.752865
0.01,1.76279
0.01,1.77214
0.01,1.78128
0.01,1.79015
0.01,1.80004