File: charging_cycle_228.csv
control/mA,Ewe/V
-0.08,-6.57716
-0.08,-6.636474
-0.08,-6.69582
-0.08,-6.750264
-0.08,-6.80154
-0.08,-6.85348
-0.08,-6.901991
-0.08,-6.951759
-0.08,-7.0
-0.08,-7.02811
0.08,-5.93731
0.08,-4.874681
0.08,-3.863812
0.08,-2.860933
0.08,-1.86081
0.08,-0.8608061
0.08,0.109054
0.08,0.535139
0.08,0.7967061
0.08,0.9263732
0.08,1.01778
0.08,1.10411
0.08,1.19609
0.08,1.29778
0.08,1.40491
0.08,1.5329
0.08,1.711589
0.08,1.91852
0.08,2.103281
0.08,2.246151
0.08,2.37109
0.08,2.496192
0.08,2.64172
0.08,2.813652
0.08,2.99339
0.08,3.18153
0.08,3.378386
0.08,3.5745
0.08,3.757827
0.08,3.9235
0.08,4.07981
0.08,4.23847
0.08,4.39886
0.08,4.55708
0.08,4.700064
0.08,4.819255
0.08,4.91648
0.08,4.99745
0.08,5.069124
0.08,5.13275
0.08,5.19202
0.08,5.24841
0.08,5.301513
0.08,5.35138
0.08,5.39811
0.08,5.441256
0.08,5.479536
0.08,5.51381
0.08,5.54232
0.08,5.566859
0.08,5.58962
0.08,5.6076
0.08,5.625729
0.08,5.64107
0.08,5.65536
0.08,5.66716
0.08,5.678874
0.08,5.689465
0.08,5.69956
0.08,5.708452
0.08,5.715704
0.08,5.7246
0.08,5.730989
0.08,5.738031
0.08,5.744099
0.08,5.74748