File: charging_cycle_96.csv
control/mA,Ewe/V
-0.01,-0.6459095
-0.01,-0.651692
-0.01,-0.6566912
-0.01,-0.660088
-0.01,-0.665908
-0.01,-0.669553
-0.01,-0.675297
-0.01,-0.678827
-0.01,-0.684705
-0.01,-0.6889983
0.01,-0.380516
0.01,0.218652
0.01,0.270252
0.01,0.29962
0.01,0.321642
0.01,0.338186
0.01,0.353472
0.01,0.3674975
0.01,0.3806646
0.01,0.393755
0.01,0.404976
0.01,0.41591
0.01,0.425872
0.01,0.4360808
0.01,0.445221
0.01,0.454286
0.01,0.46356
0.01,0.471804
0.01,0.480238
0.01,0.4877
0.01,0.495676
0.01,0.5032711
0.01,0.5104271
0.01,0.5175259
0.01,0.5246628
0.01,0.531552
0.01,0.5381734
0.01,0.5449859
0.01,0.5513214
0.01,0.5579622
0.01,0.5634389
0.01,0.570671
0.01,0.5763579
0.01,0.58319
0.01,0.5893342
0.01,0.5954406
0.01,0.602444
0.01,0.6088367
0.01,0.6146569
0.01,0.6215458
0.01,0.6272897
0.01,0.6335679
0.01,0.639922
0.01,0.645666
0.01,0.6520018
0.01,0.65828
0.01,0.664539
0.01,0.6716
0.01,0.678584
0.01,0.685664
0.01,0.691942
0.01,0.6982965
0.01,0.7054525
0.01,0.7120742
0.01,0.719669
0.01,0.7265198
0.01,0.7336759
0.01,0.74024
0.01,0.747396
0.01,0.755239
0.01,0.7622045