File: charging_cycle_185.csv
control/mA,Ewe/V
-0.08,-5.064968
-0.08,-5.0922
-0.08,-5.119144
-0.08,-5.144715
-0.08,-5.169141
-0.08,-5.19278
-0.08,-5.215569
-0.08,-5.23774
-0.08,-5.259
-0.08,-5.26457
0.08,-4.45878
0.08,-3.45723
0.08,-2.4571
0.08,-1.4571
0.08,-0.4570348
0.08,0.490467
0.08,0.9642715
0.08,1.08993
0.08,1.19569
0.08,1.31408
0.08,1.43686
0.08,1.57996
0.08,1.74764
0.08,1.91037
0.08,2.02325
0.08,2.09883
0.08,2.15545
0.08,2.20098
0.08,2.2442
0.08,2.29142
0.08,2.34401
0.08,2.40612
0.08,2.4794
0.08,2.56399
0.08,2.66051
0.08,2.766575
0.08,2.87882
0.08,2.99639
0.08,3.12052
0.08,3.25137
0.08,3.38211
0.08,3.51282
0.08,3.64177
0.08,3.77015
0.08,3.902665
0.08,4.039507
0.08,4.17612
0.08,4.308067
0.08,4.429185
0.08,4.53387
0.08,4.621405
0.08,4.694893
0.08,4.756702
0.08,4.8129
0.08,4.865015
0.08,4.912264
0.08,4.95686
0.08,4.99978
0.08,5.04063
0.08,5.08149
0.08,5.122632
0.08,5.162706
0.08,5.20099
0.08,5.237968
0.08,5.274
0.08,5.309433
0.08,5.344526
0.08,5.37721
0.08,5.405762
0.08,5.42973
0.08,5.447019
0.08,5.46253
0.08,5.476197
0.08,5.485986
0.08,5.48992