File: charging_cycle_93.csv
control/mA,Ewe/V
-0.01,-0.641616
-0.01,-0.645833
-0.01,-0.6497642
-0.01,-0.6555272
-0.01,-0.658809
-0.01,-0.6641335
-0.01,-0.6687515
-0.01,-0.6731405
-0.01,-0.67772
-0.01,-0.6818995
0.01,-0.3774702
0.01,0.215599
0.01,0.265958
0.01,0.295346
0.01,0.316318
0.01,0.334637
0.01,0.348567
0.01,0.3619635
0.01,0.375531
0.01,0.388584
0.01,0.398469
0.01,0.409651
0.01,0.419765
0.01,0.4290393
0.01,0.438313
0.01,0.448046
0.01,0.457263
0.01,0.46522
0.01,0.473502
0.01,0.481536
0.01,0.489054
0.01,0.4959433
0.01,0.503653
0.01,0.51037
0.01,0.517469
0.01,0.5242239
0.01,0.5302922
0.01,0.537658
0.01,0.54407
0.01,0.5501573
0.01,0.5564928
0.01,0.562809
0.01,0.5688584
0.01,0.5753084
0.01,0.5814721
0.01,0.5880556
0.01,0.5938377
0.01,0.6010891
0.01,0.606948
0.01,0.6133784
0.01,0.618951
0.01,0.6251906
0.01,0.631412
0.01,0.636468
0.01,0.642918
0.01,0.6488341
0.01,0.655723
0.01,0.661142
0.01,0.6670772
0.01,0.6731455
0.01,0.680034
0.01,0.6862171
0.01,0.6928198
0.01,0.6991934
0.01,0.7058533
0.01,0.7126085
0.01,0.7201271
0.01,0.7269206
0.01,0.733466
0.01,0.7414234
0.01,0.7480642