File: charging_cycle_85.csv
control/mA,Ewe/V
-0.01,-0.612343
-0.01,-0.6158542
-0.01,-0.621617
-0.01,-0.624747
-0.01,-0.6298991
-0.01,-0.6334866
-0.01,-0.636788
-0.01,-0.640643
-0.01,-0.645051
-0.01,-0.6492871
0.01,-0.3547865
0.01,0.211878
0.01,0.26218
0.01,0.29069
0.01,0.312902
0.01,0.331336
0.01,0.3459722
0.01,0.359731
0.01,0.3720392
0.01,0.3829545
0.01,0.393221
0.01,0.4031631
0.01,0.412781
0.01,0.421883
0.01,0.430528
0.01,0.4391913
0.01,0.446424
0.01,0.4546292
0.01,0.4618234
0.01,0.469208
0.01,0.476155
0.01,0.482967
0.01,0.489417
0.01,0.495371
0.01,0.5021834
0.01,0.50808
0.01,0.5141864
0.01,0.5203501
0.01,0.526132
0.01,0.531704
0.01,0.5372192
0.01,0.54262
0.01,0.548707
0.01,0.554375
0.01,0.560462
0.01,0.5659769
0.01,0.5709384
0.01,0.5767014
0.01,0.582312
0.01,0.587808
0.01,0.5934942
0.01,0.5988946
0.01,0.6041996
0.01,0.609791
0.01,0.6151149
0.01,0.6203054
0.01,0.626221
0.01,0.6319077
0.01,0.636717
0.01,0.6423269
0.01,0.647765
0.01,0.6529369
0.01,0.65807
0.01,0.663547
0.01,0.669081
0.01,0.6748248
0.01,0.679462
0.01,0.6854729
0.01,0.690511
0.01,0.696216
0.01,0.70156