File: charging_cycle_46.csv
control/mA,Ewe/V
-0.01,-0.47199
-0.01,-0.4742795
-0.01,-0.476436
-0.01,-0.4788212
-0.01,-0.481073
-0.01,-0.483153
-0.01,-0.485157
-0.01,-0.487046
-0.01,-0.489202
-0.01,-0.491187
0.01,-0.244654
0.01,0.204836
0.01,0.248727
0.01,0.2763966
0.01,0.298189
0.01,0.315936
0.01,0.331221
0.01,0.3444456
0.01,0.356067
0.01,0.366448
0.01,0.376085
0.01,0.385149
0.01,0.393087
0.01,0.400682
0.01,0.4077239
0.01,0.4144601
0.01,0.420872
0.01,0.426864
0.01,0.432703
0.01,0.438161
0.01,0.443542
0.01,0.448599
0.01,0.453503
0.01,0.458007
0.01,0.462529
0.01,0.467033
0.01,0.471288
0.01,0.4752767
0.01,0.479532
0.01,0.48352
0.01,0.486936
0.01,0.4907719
0.01,0.4940732
0.01,0.497584
0.01,0.5010002
0.01,0.5044542
0.01,0.5077555
0.01,0.5109996
0.01,0.513805
0.01,0.516801
0.01,0.5196059
0.01,0.5225065
0.01,0.5254452
0.01,0.5283076
0.01,0.5310937
0.01,0.533994
0.01,0.536799
0.01,0.5393565
0.01,0.5416846
0.01,0.5440509
0.01,0.5467797
0.01,0.5492986
0.01,0.5516076
0.01,0.553898
0.01,0.5558249
0.01,0.55821
0.01,0.56008
0.01,0.5624848
0.01,0.564393
0.01,0.566454
0.01,0.568286