File: charging_cycle_231.csv
control/mA,Ewe/V
-0.08,-6.49383
-0.08,-6.54814
-0.08,-6.60359
-0.08,-6.658076
-0.08,-6.70557
-0.08,-6.75192
-0.08,-6.79417
-0.08,-6.838159
-0.08,-6.881496
-0.08,-6.905884
0.08,-5.80385
0.08,-4.702574
0.08,-3.68794
0.08,-2.68734
0.08,-1.6873
0.08,-0.687211
0.08,0.13661
0.08,0.5601185
0.08,0.8078122
0.08,0.9363725
0.08,1.02791
0.08,1.12121
0.08,1.21702
0.08,1.31889
0.08,1.43554
0.08,1.575014
0.08,1.76092
0.08,1.96558
0.08,2.14727
0.08,2.289087
0.08,2.417571
0.08,2.55529
0.08,2.70902
0.08,2.88731
0.08,3.070582
0.08,3.26358
0.08,3.46327
0.08,3.65759
0.08,3.83286
0.08,3.99861
0.08,4.160072
0.08,4.3123
0.08,4.48147
0.08,4.632588
0.08,4.76449
0.08,4.87267
0.08,4.963654
0.08,5.041282
0.08,5.111526
0.08,5.17167
0.08,5.22957
0.08,5.287659
0.08,5.34147
0.08,5.38664
0.08,5.43513
0.08,5.47717
0.08,5.517186
0.08,5.55199
0.08,5.582201
0.08,5.60712
0.08,5.63021
0.08,5.65056
0.08,5.66878
0.08,5.68473
0.08,5.69925
0.08,5.71194
0.08,5.721715
0.08,5.73297
0.08,5.743698
0.08,5.75301
0.08,5.76034
0.08,5.76753
0.08,5.77341
0.08,5.77902
0.08,5.784402
0.08,5.786997