File: charging_cycle_239.csv
control/mA,Ewe/V
-0.08,-6.478507
-0.08,-6.542377
-0.08,-6.607793
-0.08,-6.66615
-0.08,-6.72118
-0.08,-6.76824
-0.08,-6.806253
-0.08,-6.861612
-0.08,-6.90817
-0.08,-6.936073
0.08,-5.81307
0.08,-4.80432
0.08,-3.80376
0.08,-2.80317
0.08,-1.80306
0.08,-0.803024
0.08,0.1969873
0.08,0.618264
0.08,0.838516
0.08,0.941296
0.08,1.01954
0.08,1.10146
0.08,1.19319
0.08,1.29499
0.08,1.40955
0.08,1.54961
0.08,1.73197
0.08,1.94995
0.08,2.149633
0.08,2.30254
0.08,2.436215
0.08,2.577618
0.08,2.74057
0.08,2.9205
0.08,3.11106
0.08,3.31434
0.08,3.52008
0.08,3.716074
0.08,3.900871
0.08,4.07838
0.08,4.2478
0.08,4.41846
0.08,4.574443
0.08,4.717277
0.08,4.84131
0.08,4.946136
0.08,5.03569
0.08,5.114178
0.08,5.18507
0.08,5.24982
0.08,5.31039
0.08,5.365402
0.08,5.41622
0.08,5.46232
0.08,5.50312
0.08,5.538254
0.08,5.569053
0.08,5.596093
0.08,5.61915
0.08,5.640785
0.08,5.660345
0.08,5.67798
0.08,5.69326
0.08,5.70746
0.08,5.71519
0.08,5.72883
0.08,5.73799
0.08,5.74532
0.08,5.75625
0.08,5.762647
0.08,5.76936
0.08,5.7752
0.08,5.781329
0.08,5.78602
0.08,5.79171
0.08,5.795126