File: charging_cycle_50.csv
control/mA,Ewe/V
-0.01,-0.5086665
-0.01,-0.5109946
-0.01,-0.513533
-0.01,-0.516032
-0.01,-0.518246
-0.01,-0.520536
-0.01,-0.5228068
-0.01,-0.525154
-0.01,-0.527463
-0.01,-0.529543
0.01,-0.276556
0.01,0.199035
0.01,0.244376
0.01,0.2728663
0.01,0.294334
0.01,0.312024
0.01,0.327042
0.01,0.340553
0.01,0.3524794
0.01,0.363471
0.01,0.373051
0.01,0.3824202
0.01,0.390626
0.01,0.398621
0.01,0.406216
0.01,0.4132388
0.01,0.419765
0.01,0.426177
0.01,0.432264
0.01,0.438256
0.01,0.443676
0.01,0.449191
0.01,0.454381
0.01,0.459209
0.01,0.464132
0.01,0.468884
0.01,0.4733303
0.01,0.478006
0.01,0.482166
0.01,0.4863447
0.01,0.4906
0.01,0.494588
0.01,0.4985004
0.01,0.501897
0.01,0.505523
0.01,0.509492
0.01,0.5130605
0.01,0.516629
0.01,0.519968
0.01,0.523403
0.01,0.526418
0.01,0.529567
0.01,0.5329829
0.01,0.535693
0.01,0.5386314
0.01,0.5415892
0.01,0.544547
0.01,0.5475239
0.01,0.5505199
0.01,0.5530579
0.01,0.5559776
0.01,0.5584965
0.01,0.561244
0.01,0.5640114
0.01,0.566149
0.01,0.568458
0.01,0.5709957
0.01,0.573419
0.01,0.575556
0.01,0.5779036
0.01,0.5802508