File: charging_cycle_156.csv
control/mA,Ewe/V
-0.04,-2.99156
-0.04,-3.022325
-0.04,-3.05225
-0.04,-3.08135
-0.04,-3.109
-0.04,-3.13594
-0.04,-3.16153
-0.04,-3.187734
-0.04,-3.21279
-0.04,-3.2308
0.04,-2.58541
0.04,-1.58534
0.04,-0.5853279
0.04,0.3690623
0.04,0.664558
0.04,0.7825849
0.04,0.867045
0.04,0.9478412
0.04,1.03016
0.04,1.10457
0.04,1.178246
0.04,1.25717
0.04,1.34348
0.04,1.44498
0.04,1.557
0.04,1.67661
0.04,1.797862
0.04,1.91062
0.04,2.00346
0.04,2.07626
0.04,2.127993
0.04,2.17051
0.04,2.21047
0.04,2.24512
0.04,2.283515
0.04,2.32239
0.04,2.36414
0.04,2.408354
0.04,2.45715
0.04,2.50837
0.04,2.564031
0.04,2.62471
0.04,2.69171
0.04,2.767987
0.04,2.85294
0.04,2.942823
0.04,3.0382
0.04,3.13789
0.04,3.23912
0.04,3.3445
0.04,3.45392
0.04,3.56834
0.04,3.6931
0.04,3.825666
0.04,3.95442
0.04,4.06506
0.04,4.15152
0.04,4.222252
0.04,4.28061
0.04,4.329573
0.04,4.37083
0.04,4.40837
0.04,4.441608
0.04,4.4713
0.04,4.50044
0.04,4.52712
0.04,4.55532
0.04,4.58022
0.04,4.604555
0.04,4.627836
0.04,4.647873
0.04,4.66875
0.04,4.68039