File: charging_cycle_15.csv
control/mA,Ewe/V
-0.01,-2.00002
-0.01,-2.011221
-0.01,-2.02275
-0.01,-2.034082
-0.01,-2.04534
-0.01,-2.05608
-0.01,-2.067
-0.01,-2.07803
-0.01,-2.08975
-0.01,-2.10018
0.01,-0.814553
0.01,0.19041
0.01,1.10838
0.01,1.14989
0.01,1.17924
0.01,1.20347
0.01,1.2237
0.01,1.24215
0.01,1.25883
0.01,1.27408
0.01,1.28889
0.01,1.30183
0.01,1.314
0.01,1.326576
0.01,1.33791
0.01,1.34928
0.01,1.360696
0.01,1.371077
0.01,1.38203
0.01,1.39264
0.01,1.40327
0.01,1.41426
0.01,1.42514
0.01,1.43626
0.01,1.44695
0.01,1.45792
0.01,1.468914
0.01,1.47992
0.01,1.490821
0.01,1.501431
0.01,1.5124
0.01,1.52353
0.01,1.53492
0.01,1.54565
0.01,1.55616
0.01,1.56709
0.01,1.5777
0.01,1.5883
0.01,1.59906
0.01,1.60948
0.01,1.61961
0.01,1.62984
0.01,1.640315
0.01,1.65081
0.01,1.66094
0.01,1.67167
0.01,1.68186
0.01,1.69205
0.01,1.70237
0.01,1.71247
0.01,1.72182
0.01,1.73197
0.01,1.74201
0.01,1.75147
0.01,1.76111
0.01,1.77094
0.01,1.78052
0.01,1.79031
0.01,1.80013
0.01,1.80935
0.01,1.8187
0.01,1.82838