File: charging_cycle_62.csv
control/mA,Ewe/V
-0.01,-0.5423857
-0.01,-0.546202
-0.01,-0.5494272
-0.01,-0.552709
-0.01,-0.555744
-0.01,-0.5581671
-0.01,-0.5615829
-0.01,-0.5640446
-0.01,-0.567193
-0.01,-0.569827
0.01,-0.302446
0.01,0.203443
0.01,0.251551
0.01,0.280747
0.01,0.3025399
0.01,0.319886
0.01,0.334542
0.01,0.347995
0.01,0.359769
0.01,0.370665
0.01,0.380703
0.01,0.389901
0.01,0.3990031
0.01,0.407342
0.01,0.4153379
0.01,0.422818
0.01,0.42986
0.01,0.4368441
0.01,0.4438093
0.01,0.450431
0.01,0.456824
0.01,0.462529
0.01,0.468426
0.01,0.474151
0.01,0.479628
0.01,0.484952
0.01,0.490333
0.01,0.49518
0.01,0.5003514
0.01,0.505218
0.01,0.51016
0.01,0.5148543
0.01,0.51932
0.01,0.5242621
0.01,0.529395
0.01,0.533689
0.01,0.538326
0.01,0.5427151
0.01,0.5472186
0.01,0.551474
0.01,0.5556913
0.01,0.5597559
0.01,0.563706
0.01,0.567713
0.01,0.572122
0.01,0.5759953
0.01,0.5801554
0.01,0.584258
0.01,0.5883037
0.01,0.592216
0.01,0.596643
0.01,0.6004785
0.01,0.6042378
0.01,0.608054
0.01,0.6119472
0.01,0.6155729
0.01,0.6189124
0.01,0.622481
0.01,0.6263165
0.01,0.6296369
0.01,0.6332244