File: charging_cycle_192.csv
control/mA,Ewe/V
-0.08,-5.241121
-0.08,-5.27534
-0.08,-5.3068
-0.08,-5.33382
-0.08,-5.356495
-0.08,-5.37615
-0.08,-5.392065
-0.08,-5.40663
-0.08,-5.41922
-0.08,-5.42718
0.08,-4.59929
0.08,-3.59755
0.08,-2.597477
0.08,-1.59742
0.08,-0.5973882
0.08,0.402686
0.08,0.898799
0.08,1.03196
0.08,1.11088
0.08,1.20025
0.08,1.3061
0.08,1.42342
0.08,1.56893
0.08,1.750785
0.08,1.93337
0.08,2.05701
0.08,2.13876
0.08,2.20354
0.08,2.26218
0.08,2.32307
0.08,2.39141
0.08,2.47161
0.08,2.566798
0.08,2.67897
0.08,2.80934
0.08,2.94756
0.08,3.08659
0.08,3.23481
0.08,3.385752
0.08,3.53668
0.08,3.682164
0.08,3.81542
0.08,3.955047
0.08,4.08985
0.08,4.230419
0.08,4.37625
0.08,4.515973
0.08,4.64528
0.08,4.758114
0.08,4.85257
0.08,4.931576
0.08,4.99741
0.08,5.05332
0.08,5.10439
0.08,5.15065
0.08,5.19385
0.08,5.236174
0.08,5.276572
0.08,5.31516
0.08,5.348705
0.08,5.3767
0.08,5.39843
0.08,5.41645
0.08,5.43095
0.08,5.442153
0.08,5.452954
0.08,5.461522
0.08,5.468907
0.08,5.475357
0.08,5.482246
0.08,5.48799
0.08,5.493085
0.08,5.497722
0.08,5.50196
0.08,5.50347