File: charging_cycle_74.csv
control/mA,Ewe/V
-0.01,-0.5801695
-0.01,-0.583051
-0.01,-0.5865813
-0.01,-0.5911802
-0.01,-0.594825
-0.01,-0.5977638
-0.01,-0.6007979
-0.01,-0.6042328
-0.01,-0.607801
-0.01,-0.610969
0.01,-0.329377
0.01,0.2096834
0.01,0.25968
0.01,0.288991
0.01,0.309887
0.01,0.3263361
0.01,0.3401329
0.01,0.352518
0.01,0.36412
0.01,0.375073
0.01,0.384996
0.01,0.394671
0.01,0.4028387
0.01,0.41154
0.01,0.419135
0.01,0.426902
0.01,0.43381
0.01,0.441004
0.01,0.447397
0.01,0.4540758
0.01,0.460259
0.01,0.466346
0.01,0.4724334
0.01,0.478464
0.01,0.4841502
0.01,0.489875
0.01,0.495333
0.01,0.5005423
0.01,0.506019
0.01,0.511362
0.01,0.5164954
0.01,0.521705
0.01,0.526781
0.01,0.531685
0.01,0.5368758
0.01,0.5417228
0.01,0.546703
0.01,0.5514359
0.01,0.5558631
0.01,0.5600994
0.01,0.565195
0.01,0.5697553
0.01,0.574411
0.01,0.5788196
0.01,0.58401
0.01,0.5888189
0.01,0.593513
0.01,0.598208
0.01,0.602368
0.01,0.606909
0.01,0.611012
0.01,0.6151912
0.01,0.6199047
0.01,0.6244464
0.01,0.6283011
0.01,0.6326519
0.01,0.636831
0.01,0.6412964
0.01,0.6457045
0.01,0.650094
0.01,0.6539864