File: charging_cycle_209.csv
control/mA,Ewe/V
-0.08,-6.07364
-0.08,-6.10272
-0.08,-6.129727
-0.08,-6.159038
-0.08,-6.1848
-0.08,-6.211731
-0.08,-6.237359
-0.08,-6.262777
-0.08,-6.28892
-0.08,-6.304091
0.08,-5.083744
0.08,-4.050708
0.08,-3.049165
0.08,-2.04908
0.08,-1.04906
0.08,-0.0490272
0.08,0.6981629
0.08,1.04408
0.08,1.12924
0.08,1.18044
0.08,1.24181
0.08,1.31633
0.08,1.41018
0.08,1.52964
0.08,1.68842
0.08,1.88242
0.08,2.087118
0.08,2.25991
0.08,2.39675
0.08,2.52151
0.08,2.64521
0.08,2.78182
0.08,2.93964
0.08,3.12058
0.08,3.3162
0.08,3.518606
0.08,3.716532
0.08,3.91442
0.08,4.08975
0.08,4.25406
0.08,4.41069
0.08,4.563451
0.08,4.717468
0.08,4.86721
0.08,5.00253
0.08,5.122632
0.08,5.222263
0.08,5.30705
0.08,5.37861
0.08,5.442115
0.08,5.49513
0.08,5.540906
0.08,5.579224
0.08,5.613325
0.08,5.64119
0.08,5.66494
0.08,5.686221
0.08,5.701831
0.08,5.71979
0.08,5.7333
0.08,5.745244
0.08,5.756121
0.08,5.76639
0.08,5.77488
0.08,5.784306
0.08,5.790661
0.08,5.79953
0.08,5.80402
0.08,5.81341
0.08,5.8206
0.08,5.826517
0.08,5.83302
0.08,5.83856
0.08,5.84365
0.08,5.84842
0.08,5.849474