File: charging_cycle_121.csv
control/mA,Ewe/V
-0.02,-1.85083
-0.02,-1.89501
-0.02,-1.93802
-0.02,-1.9805
-0.02,-2.0203
-0.02,-2.06112
-0.02,-2.097761
-0.02,-2.13482
-0.02,-2.170867
-0.02,-2.18568
0.02,-1.47935
0.02,-0.479152
0.02,0.407113
0.02,0.482452
0.02,0.515999
0.02,0.542314
0.02,0.5669692
0.02,0.5902692
0.02,0.613951
0.02,0.6384149
0.02,0.664463
0.02,0.690053
0.02,0.7187341
0.02,0.747091
0.02,0.77436
0.02,0.7994731
0.02,0.8226777
0.02,0.845004
0.02,0.8666252
0.02,0.888761
0.02,0.911546
0.02,0.9342734
0.02,0.9595008
0.02,0.9866364
0.02,1.01589
0.02,1.046995
0.02,1.07936
0.02,1.11403
0.02,1.151244
0.02,1.19176
0.02,1.23555
0.02,1.28062
0.02,1.32993
0.02,1.38207
0.02,1.43537
0.02,1.49153
0.02,1.55318
0.02,1.61702
0.02,1.68552
0.02,1.75535
0.02,1.825074
0.02,1.89616
0.02,1.96966
0.02,2.04136
0.02,2.10899
0.02,2.17522
0.02,2.23411
0.02,2.28966
0.02,2.34324
0.02,2.394672
0.02,2.44509
0.02,2.491593
0.02,2.54138
0.02,2.58598
0.02,2.6321
0.02,2.67729
0.02,2.714403
0.02,2.76186
0.02,2.805103
0.02,2.850081
0.02,2.89145
0.02,2.93044