File: charging_cycle_102.csv
control/mA,Ewe/V
-0.01,-0.6675111
-0.01,-0.675278
-0.01,-0.680926
-0.01,-0.683941
-0.01,-0.689132
-0.01,-0.693406
-0.01,-0.700085
-0.01,-0.705772
-0.01,-0.709474
-0.01,-0.7159621
0.01,-0.400715
0.01,0.219606
0.01,0.27134
0.01,0.301204
0.01,0.3224623
0.01,0.339198
0.01,0.354636
0.01,0.368299
0.01,0.381695
0.01,0.394271
0.01,0.4049378
0.01,0.4166737
0.01,0.427112
0.01,0.43694
0.01,0.4473587
0.01,0.45669
0.01,0.4652583
0.01,0.4735593
0.01,0.48249
0.01,0.4905429
0.01,0.498729
0.01,0.506401
0.01,0.513843
0.01,0.5209417
0.01,0.528613
0.01,0.53575
0.01,0.542658
0.01,0.549585
0.01,0.55655
0.01,0.563286
0.01,0.570671
0.01,0.577522
0.01,0.5839719
0.01,0.590784
0.01,0.5973489
0.01,0.6041996
0.01,0.6119472
0.01,0.618378
0.01,0.625057
0.01,0.63206
0.01,0.6391019
0.01,0.646124
0.01,0.653128
0.01,0.66036
0.01,0.6671535
0.01,0.6740614
0.01,0.6810457
0.01,0.6885834
0.01,0.695453
0.01,0.703086
0.01,0.7102041
0.01,0.7173792
0.01,0.7237338
0.01,0.7317104
0.01,0.739592
0.01,0.7466521
0.01,0.754972
0.01,0.7629869
0.01,0.770849
0.01,0.7782531
0.01,0.786878