File: charging_cycle_172.csv
control/mA,Ewe/V
-0.04,-3.95366
-0.04,-4.0426
-0.04,-4.122005
-0.04,-4.189443
-0.04,-4.24693
-0.04,-4.294732
-0.04,-4.33576
-0.04,-4.37133
-0.04,-4.407511
-0.04,-4.43465
0.04,-3.74957
0.04,-2.74922
0.04,-1.74909
0.04,-0.7490195
0.04,0.2509975
0.04,0.7285617
0.04,0.848134
0.04,0.9322888
0.04,1.01517
0.04,1.102354
0.04,1.1896
0.04,1.2799
0.04,1.37787
0.04,1.48437
0.04,1.60797
0.04,1.74611
0.04,1.88171
0.04,1.98436
0.04,2.057845
0.04,2.10834
0.04,2.14912
0.04,2.18669
0.04,2.222622
0.04,2.25783
0.04,2.29256
0.04,2.327329
0.04,2.363796
0.04,2.40173
0.04,2.44398
0.04,2.49014
0.04,2.54022
0.04,2.59664
0.04,2.65895
0.04,2.72711
0.04,2.798157
0.04,2.8751
0.04,2.95223
0.04,3.03677
0.04,3.1242
0.04,3.2137
0.04,3.30788
0.04,3.40251
0.04,3.49781
0.04,3.597093
0.04,3.701762
0.04,3.81679
0.04,3.93896
0.04,4.06059
0.04,4.17108
0.04,4.266543
0.04,4.34864
0.04,4.41436
0.04,4.471453
0.04,4.521393
0.04,4.56795
0.04,4.61137
0.04,4.649457
0.04,4.688958
0.04,4.72397
0.04,4.759316
0.04,4.79273
0.04,4.82425
0.04,4.85589
0.04,4.87702