File: charging_cycle_119.csv
control/mA,Ewe/V
-0.02,-1.751944
-0.02,-1.79356
-0.02,-1.83337
-0.02,-1.87312
-0.02,-1.91338
-0.02,-1.95142
-0.02,-1.98893
-0.02,-2.02633
-0.02,-2.064557
-0.02,-2.081407
0.02,-1.38213
0.02,-0.3819443
0.02,0.41738
0.02,0.4844746
0.02,0.517812
0.02,0.545005
0.02,0.5693164
0.02,0.593036
0.02,0.616851
0.02,0.641697
0.02,0.6671344
0.02,0.694117
0.02,0.7223789
0.02,0.7506213
0.02,0.777566
0.02,0.8021065
0.02,0.824548
0.02,0.846207
0.02,0.8679228
0.02,0.888876
0.02,0.9118131
0.02,0.933701
0.02,0.9578597
0.02,0.984518
0.02,1.01274
0.02,1.04364
0.02,1.07547
0.02,1.11136
0.02,1.14817
0.02,1.18796
0.02,1.22868
0.02,1.27368
0.02,1.32165
0.02,1.37148
0.02,1.426436
0.02,1.48317
0.02,1.542497
0.02,1.606615
0.02,1.67247
0.02,1.74151
0.02,1.81206
0.02,1.88496
0.02,1.95753
0.02,2.0276
0.02,2.094999
0.02,2.15864
0.02,2.21861
0.02,2.274317
0.02,2.32672
0.02,2.37591
0.02,2.42601
0.02,2.472434
0.02,2.518614
0.02,2.564718
0.02,2.6018
0.02,2.650113
0.02,2.69425
0.02,2.73572
0.02,2.77875
0.02,2.82039
0.02,2.86103
0.02,2.89928