File: charging_cycle_223.csv
control/mA,Ewe/V
-0.08,-6.621532
-0.08,-6.681223
-0.08,-6.73231
-0.08,-6.77809
-0.08,-6.82574
-0.08,-6.87564
-0.08,-6.92403
-0.08,-6.97783
-0.08,-7.027651
-0.08,-7.05767
0.08,-5.92753
0.08,-4.831287
0.08,-3.80391
0.08,-2.80223
0.08,-1.80215
0.08,-0.802108
0.08,0.197961
0.08,0.628034
0.08,0.8861277
0.08,1.01595
0.08,1.09602
0.08,1.17428
0.08,1.25595
0.08,1.34535
0.08,1.45121
0.08,1.58915
0.08,1.77031
0.08,1.96898
0.08,2.14864
0.08,2.29405
0.08,2.423544
0.08,2.55623
0.08,2.70437
0.08,2.871034
0.08,3.04929
0.08,3.237155
0.08,3.437657
0.08,3.63003
0.08,3.8158
0.08,3.98497
0.08,4.13967
0.08,4.29118
0.08,4.44705
0.08,4.59061
0.08,4.73212
0.08,4.854539
0.08,4.956059
0.08,5.04201
0.08,5.11679
0.08,5.184956
0.08,5.246746
0.08,5.30428
0.08,5.3587
0.08,5.406621
0.08,5.456026
0.08,5.497302
0.08,5.53156
0.08,5.56012
0.08,5.582907
0.08,5.605215
0.08,5.62359
0.08,5.639793
0.08,5.65517
0.08,5.66708
0.08,5.679313
0.08,5.688988
0.08,5.69878
0.08,5.707021
0.08,5.715437
0.08,5.722364
0.08,5.730226
0.08,5.734042
0.08,5.743355
0.08,5.74948
0.08,5.755129
0.08,5.75797