File: charging_cycle_7.csv
control/mA,Ewe/V
-0.01,-1.79127
-0.01,-1.801311
-0.01,-1.81133
-0.01,-1.82079
-0.01,-1.83053
-0.01,-1.84024
-0.01,-1.85011
-0.01,-1.85942
-0.01,-1.86841
-0.01,-1.87785
0.01,-0.6301173
0.01,0.3751497
0.01,0.978908
0.01,1.02324
0.01,1.052281
0.01,1.07526
0.01,1.0948
0.01,1.11193
0.01,1.12735
0.01,1.140405
0.01,1.15308
0.01,1.16542
0.01,1.17668
0.01,1.18733
0.01,1.19802
0.01,1.20758
0.01,1.21788
0.01,1.227365
0.01,1.23725
0.01,1.246524
0.01,1.256199
0.01,1.26515
0.01,1.27473
0.01,1.283888
0.01,1.29328
0.01,1.3027
0.01,1.31213
0.01,1.32077
0.01,1.32951
0.01,1.33923
0.01,1.34806
0.01,1.35686
0.01,1.3652
0.01,1.37371
0.01,1.38312
0.01,1.39159
0.01,1.40035
0.01,1.40888
0.01,1.41718
0.01,1.4259
0.01,1.43434
0.01,1.44105
0.01,1.44974
0.01,1.45788
0.01,1.46611
0.01,1.47491
0.01,1.48307
0.01,1.49137
0.01,1.49943
0.01,1.50759
0.01,1.515724
0.01,1.52399
0.01,1.53194
0.01,1.53981
0.01,1.54845
0.01,1.55626
0.01,1.56444
0.01,1.5725
0.01,1.58062
0.01,1.58852
0.01,1.59642
0.01,1.60398