File: charging_cycle_243.csv
control/mA,Ewe/V
-0.08,-6.389868
-0.08,-6.44618
-0.08,-6.50421
-0.08,-6.563387
-0.08,-6.627257
-0.08,-6.69174
-0.08,-6.747535
-0.08,-6.79465
-0.08,-6.838751
-0.08,-6.863024
0.08,-5.78878
0.08,-4.72171
0.08,-3.70115
0.08,-2.70112
0.08,-1.70081
0.08,-0.7007975
0.08,0.167256
0.08,0.5453676
0.08,0.7737305
0.08,0.888761
0.08,0.9748433
0.08,1.06848
0.08,1.17015
0.08,1.27763
0.08,1.39363
0.08,1.52914
0.08,1.70529
0.08,1.92524
0.08,2.13002
0.08,2.28647
0.08,2.42555
0.08,2.5722
0.08,2.73585
0.08,2.927824
0.08,3.120235
0.08,3.319974
0.08,3.51967
0.08,3.70875
0.08,3.89116
0.08,4.066204
0.08,4.2342
0.08,4.378387
0.08,4.54998
0.08,4.69926
0.08,4.82279
0.08,4.92694
0.08,5.016074
0.08,5.095153
0.08,5.165721
0.08,5.2335
0.08,5.294567
0.08,5.34989
0.08,5.403663
0.08,5.451217
0.08,5.494516
0.08,5.531956
0.08,5.56459
0.08,5.59474
0.08,5.62243
0.08,5.64592
0.08,5.668417
0.08,5.68838
0.08,5.7059
0.08,5.72152
0.08,5.73542
0.08,5.74839
0.08,5.759594
0.08,5.769498
0.08,5.77816
0.08,5.78488
0.08,5.792321
0.08,5.79896
0.08,5.804572
0.08,5.80927
0.08,5.81345
0.08,5.81572