File: charging_cycle_5.csv
control/mA,Ewe/V
-0.01,-1.67567
-0.01,-1.68487
-0.01,-1.69399
-0.01,-1.70252
-0.01,-1.71151
-0.01,-1.72025
-0.01,-1.7292
-0.01,-1.73803
-0.01,-1.74652
-0.01,-1.75475
0.01,-0.5383404
0.01,0.467281
0.01,0.914466
0.01,0.96097
0.01,0.9921513
0.01,1.01667
0.01,1.03713
0.01,1.0556
0.01,1.07146
0.01,1.086172
0.01,1.09985
0.01,1.11279
0.01,1.12474
0.01,1.13592
0.01,1.14642
0.01,1.15636
0.01,1.16649
0.01,1.17634
0.01,1.18559
0.01,1.19487
0.01,1.20416
0.01,1.21315
0.01,1.22237
0.01,1.23124
0.01,1.23943
0.01,1.24866
0.01,1.25721
0.01,1.26416
0.01,1.27188
0.01,1.28017
0.01,1.28791
0.01,1.296578
0.01,1.30431
0.01,1.31247
0.01,1.32077
0.01,1.32892
0.01,1.33715
0.01,1.345029
0.01,1.3535
0.01,1.3611
0.01,1.368997
0.01,1.37648
0.01,1.38417
0.01,1.3922
0.01,1.39974
0.01,1.40768
0.01,1.41491
0.01,1.422772
0.01,1.43075
0.01,1.437981
0.01,1.44601
0.01,1.45344
0.01,1.46098
0.01,1.46827
0.01,1.47611
0.01,1.48372
0.01,1.49124
0.01,1.4987
0.01,1.50422
0.01,1.50863
0.01,1.513892
0.01,1.52013