File: charging_cycle_219.csv
control/mA,Ewe/V
-0.08,-6.564379
-0.08,-6.606533
-0.08,-6.64953
-0.08,-6.68851
-0.08,-6.72754
-0.08,-6.764519
-0.08,-6.738185
-0.08,-6.75845
-0.08,-6.781636
-0.08,-6.80887
0.08,-5.597054
0.08,-4.59291
0.08,-3.57407
0.08,-2.57378
0.08,-1.57347
0.08,-0.573344
0.08,0.4274936
0.08,0.8581334
0.08,1.07772
0.08,1.1489
0.08,1.20321
0.08,1.26532
0.08,1.34072
0.08,1.43535
0.08,1.55498
0.08,1.71081
0.08,1.89599
0.08,2.08013
0.08,2.2467
0.08,2.387573
0.08,2.526667
0.08,2.67519
0.08,2.83741
0.08,3.02064
0.08,3.21418
0.08,3.425425
0.08,3.63055
0.08,3.8278
0.08,4.008555
0.08,4.175128
0.08,4.3366
0.08,4.49054
0.08,4.63553
0.08,4.783265
0.08,4.907856
0.08,5.00585
0.08,5.099351
0.08,5.17849
0.08,5.2502
0.08,5.31428
0.08,5.37576
0.08,5.43282
0.08,5.48404
0.08,5.52642
0.08,5.56283
0.08,5.59266
0.08,5.619317
0.08,5.641682
0.08,5.65743
0.08,5.67784
0.08,5.69389
0.08,5.70872
0.08,5.72275
0.08,5.73608
0.08,5.74824
0.08,5.758678
0.08,5.769231
0.08,5.77875
0.08,5.78877
0.08,5.799038
0.08,5.807816
0.08,5.816594
0.08,5.82428
0.08,5.83281
0.08,5.841001
0.08,5.84505