File: charging_cycle_241.csv
control/mA,Ewe/V
-0.08,-6.42446
-0.08,-6.467439
-0.08,-6.524344
-0.08,-6.576516
-0.08,-6.629833
-0.08,-6.683284
-0.08,-6.738261
-0.08,-6.789918
-0.08,-6.836747
-0.08,-6.86308
0.08,-5.77227
0.08,-4.68706
0.08,-3.67008
0.08,-2.6698
0.08,-1.66976
0.08,-0.6696545
0.08,0.166207
0.08,0.5594697
0.08,0.7852755
0.08,0.8957836
0.08,0.984518
0.08,1.07316
0.08,1.165995
0.08,1.273507
0.08,1.38905
0.08,1.52145
0.08,1.698212
0.08,1.91224
0.08,2.12112
0.08,2.27323
0.08,2.40709
0.08,2.54939
0.08,2.71797
0.08,2.90559
0.08,3.09749
0.08,3.296674
0.08,3.50115
0.08,3.6985
0.08,3.88854
0.08,4.06475
0.08,4.23328
0.08,4.40558
0.08,4.57398
0.08,4.725387
0.08,4.851543
0.08,4.95528
0.08,5.04258
0.08,5.118396
0.08,5.189975
0.08,5.250849
0.08,5.31193
0.08,5.36775
0.08,5.41803
0.08,5.464251
0.08,5.504573
0.08,5.53875
0.08,5.568691
0.08,5.597391
0.08,5.6231
0.08,5.64651
0.08,5.668474
0.08,5.68718
0.08,5.704235
0.08,5.719616
0.08,5.73368
0.08,5.746618
0.08,5.75824
0.08,5.76887
0.08,5.778276
0.08,5.786539
0.08,5.794
0.08,5.800908
0.08,5.807053
0.08,5.812873
0.08,5.81854
0.08,5.82079