File: charging_cycle_40.csv
control/mA,Ewe/V
-0.01,-0.462486
-0.01,-0.4639939
-0.01,-0.465807
-0.01,-0.4674097
-0.01,-0.468555
-0.01,-0.469795
-0.01,-0.471035
-0.01,-0.472428
-0.01,-0.4738406
-0.01,-0.4749283
0.01,-0.219726
0.01,0.226362
0.01,0.264069
0.01,0.2888958
0.01,0.3087609
0.01,0.3253438
0.01,0.339293
0.01,0.351812
0.01,0.362612
0.01,0.372612
0.01,0.38139
0.01,0.389614
0.01,0.397286
0.01,0.404098
0.01,0.410529
0.01,0.416502
0.01,0.422227
0.01,0.427627
0.01,0.433047
0.01,0.438008
0.01,0.4428361
0.01,0.446729
0.01,0.451061
0.01,0.4549727
0.01,0.45898
0.01,0.462644
0.01,0.466518
0.01,0.470258
0.01,0.4736356
0.01,0.4769369
0.01,0.480181
0.01,0.482986
0.01,0.486154
0.01,0.48894
0.01,0.491592
0.01,0.494226
0.01,0.496783
0.01,0.499321
0.01,0.5017254
0.01,0.504302
0.01,0.5064961
0.01,0.5087478
0.01,0.5107897
0.01,0.5127552
0.01,0.514797
0.01,0.5169725
0.01,0.518804
0.01,0.5206936
0.01,0.5225446
0.01,0.524472
0.01,0.526094
0.01,0.527831
0.01,0.5291854
0.01,0.5310555
0.01,0.532716
0.01,0.534452
0.01,0.5360743
0.01,0.5375055
0.01,0.5391466
0.01,0.5406732
0.01,0.542085