File: charging_cycle_151.csv
control/mA,Ewe/V
-0.04,-2.67275
-0.04,-2.6987
-0.04,-2.723146
-0.04,-2.749232
-0.04,-2.77173
-0.04,-2.79474
-0.04,-2.8169
-0.04,-2.83926
-0.04,-2.86106
-0.04,-2.8705
0.04,-2.23056
0.04,-1.23053
0.04,-0.230466
0.04,0.372745
0.04,0.6015089
0.04,0.727188
0.04,0.821838
0.04,0.907061
0.04,0.987056
0.04,1.05915
0.04,1.12502
0.04,1.193703
0.04,1.27362
0.04,1.352853
0.04,1.452732
0.04,1.56022
0.04,1.67043
0.04,1.76964
0.04,1.88423
0.04,1.96569
0.04,2.039163
0.04,2.09258
0.04,2.133966
0.04,2.16826
0.04,2.199057
0.04,2.228404
0.04,2.25709
0.04,2.28706
0.04,2.318627
0.04,2.35397
0.04,2.39271
0.04,2.435337
0.04,2.48348
0.04,2.53701
0.04,2.59746
0.04,2.66633
0.04,2.745107
0.04,2.8294
0.04,2.91492
0.04,3.00173
0.04,3.08789
0.04,3.172579
0.04,3.26215
0.04,3.35469
0.04,3.447828
0.04,3.54664
0.04,3.646193
0.04,3.74203
0.04,3.834864
0.04,3.92232
0.04,3.99695
0.04,4.06172
0.04,4.119063
0.04,4.16904
0.04,4.2138
0.04,4.25622
0.04,4.29484
0.04,4.33247
0.04,4.36825
0.04,4.40171
0.04,4.43327
0.04,4.46508
0.04,4.47319