File: charging_cycle_33.csv
control/mA,Ewe/V
-0.01,-2.18159
-0.01,-2.196724
-0.01,-2.21095
-0.01,-2.225297
-0.01,-2.23909
-0.01,-2.252299
-0.01,-2.26562
-0.01,-2.27943
-0.01,-2.291991
-0.01,-2.30508
0.01,-1.00123
0.01,0.0445545
0.01,1.0452
0.01,1.18073
0.01,1.205
0.01,1.231506
0.01,1.25711
0.01,1.28024
0.01,1.301425
0.01,1.32127
0.01,1.34026
0.01,1.35864
0.01,1.37545
0.01,1.39201
0.01,1.408231
0.01,1.423917
0.01,1.43949
0.01,1.45445
0.01,1.46945
0.01,1.4841
0.01,1.498893
0.01,1.5133
0.01,1.5283
0.01,1.54336
0.01,1.55784
0.01,1.5729
0.01,1.58717
0.01,1.60257
0.01,1.61776
0.01,1.63322
0.01,1.648139
0.01,1.66268
0.01,1.67692
0.01,1.69155
0.01,1.70663
0.01,1.72136
0.01,1.736721
0.01,1.75208
0.01,1.76676
0.01,1.78202
0.01,1.79748
0.01,1.81273
0.01,1.82797
0.01,1.84339
0.01,1.85879
0.01,1.87457
0.01,1.889688
0.01,1.90497
0.01,1.92037
0.01,1.93539
0.01,1.95026
0.01,1.96535
0.01,1.97976
0.01,1.9943
0.01,2.00901
0.01,2.02332
0.01,2.03701
0.01,2.05147
0.01,2.06508
0.01,2.07872
0.01,2.092442
0.01,2.1062
0.01,2.11834