File: charging_cycle_103.csv
control/mA,Ewe/V
-0.02,-1.33136
-0.02,-1.35306
-0.02,-1.37483
-0.02,-1.39916
-0.02,-1.42632
-0.02,-1.45175
-0.02,-1.47614
-0.02,-1.50295
-0.02,-1.53055
-0.02,-1.5382
0.02,-0.857836
0.02,0.142169
0.02,0.4889972
0.02,0.533479
0.02,0.5611108
0.02,0.5839147
0.02,0.6052873
0.02,0.626221
0.02,0.648109
0.02,0.668661
0.02,0.688488
0.02,0.7075516
0.02,0.7261764
0.02,0.7441523
0.02,0.7612886
0.02,0.778081
0.02,0.7952749
0.02,0.812678
0.02,0.830559
0.02,0.8485157
0.02,0.867732
0.02,0.8872345
0.02,0.9082637
0.02,0.929789
0.02,0.9523257
0.02,0.975416
0.02,0.999975
0.02,1.023657
0.02,1.04824
0.02,1.07321
0.02,1.0976
0.02,1.12165
0.02,1.14628
0.02,1.17319
0.02,1.19826
0.02,1.2254
0.02,1.25162
0.02,1.28005
0.02,1.30933
0.02,1.33951
0.02,1.3698
0.02,1.40071
0.02,1.43327
0.02,1.46393
0.02,1.495439
0.02,1.52801
0.02,1.56103
0.02,1.59421
0.02,1.62858
0.02,1.66411
0.02,1.6992
0.02,1.735347
0.02,1.77336
0.02,1.81095
0.02,1.84923
0.02,1.88681
0.02,1.92719
0.02,1.964626
0.02,2.00418
0.02,2.0462
0.02,2.08815
0.02,2.12866