File: charging_cycle_99.csv
control/mA,Ewe/V
-0.01,-0.6609085
-0.01,-0.664172
-0.01,-0.6681027
-0.01,-0.674629
-0.01,-0.679056
-0.01,-0.68459
-0.01,-0.6893417
-0.01,-0.694971
-0.01,-0.7005815
-0.01,-0.7047224
0.01,-0.3924591
0.01,0.218042
0.01,0.268592
0.01,0.298838
0.01,0.320535
0.01,0.33853
0.01,0.3533
0.01,0.367574
0.01,0.3795578
0.01,0.391446
0.01,0.403049
0.01,0.413983
0.01,0.424994
0.01,0.4341153
0.01,0.44421
0.01,0.453351
0.01,0.4625867
0.01,0.470582
0.01,0.4791696
0.01,0.487413
0.01,0.495695
0.01,0.5029467
0.01,0.5098928
0.01,0.517908
0.01,0.52514
0.01,0.532239
0.01,0.5392039
0.01,0.5458828
0.01,0.552447
0.01,0.558745
0.01,0.565767
0.01,0.571606
0.01,0.5781708
0.01,0.5849642
0.01,0.5910325
0.01,0.5983412
0.01,0.6041996
0.01,0.611012
0.01,0.6175575
0.01,0.624236
0.01,0.6301521
0.01,0.637461
0.01,0.644445
0.01,0.6511622
0.01,0.65725
0.01,0.6639858
0.01,0.670073
0.01,0.67658
0.01,0.6840799
0.01,0.6916557
0.01,0.698945
0.01,0.705987
0.01,0.713696
0.01,0.7202798
0.01,0.7279129
0.01,0.735699
0.01,0.7426638
0.01,0.7504305
0.01,0.757987
0.01,0.7651814
0.01,0.771765