File: charging_cycle_237.csv
control/mA,Ewe/V
-0.08,-6.403035
-0.08,-6.46055
-0.08,-6.515909
-0.08,-6.57636
-0.08,-6.63037
-0.08,-6.676719
-0.08,-6.721621
-0.08,-6.76647
-0.08,-6.814993
-0.08,-6.840277
0.08,-5.689392
0.08,-4.673148
0.08,-3.66685
0.08,-2.66673
0.08,-1.66671
0.08,-0.666658
0.08,0.227182
0.08,0.6224236
0.08,0.836303
0.08,0.939769
0.08,1.02198
0.08,1.10894
0.08,1.20344
0.08,1.309268
0.08,1.42701
0.08,1.5723
0.08,1.76204
0.08,1.97655
0.08,2.16734
0.08,2.318818
0.08,2.45805
0.08,2.60676
0.08,2.77423
0.08,2.95198
0.08,3.13605
0.08,3.33009
0.08,3.529006
0.08,3.72083
0.08,3.90929
0.08,4.08878
0.08,4.262383
0.08,4.42846
0.08,4.58477
0.08,4.718899
0.08,4.83836
0.08,4.947624
0.08,5.041034
0.08,5.123529
0.08,5.196654
0.08,5.26068
0.08,5.3243
0.08,5.37874
0.08,5.432879
0.08,5.4833
0.08,5.529342
0.08,5.57188
0.08,5.60882
0.08,5.642159
0.08,5.66882
0.08,5.693358
0.08,5.713013
0.08,5.730245
0.08,5.744042
0.08,5.75738
0.08,5.76795
0.08,5.778448
0.08,5.787703
0.08,5.796729
0.08,5.805145
0.08,5.81253
0.08,5.82012
0.08,5.827643
0.08,5.83457
0.08,5.840104
0.08,5.846096
0.08,5.84825