File: charging_cycle_264.csv
control/mA,Ewe/V
-0.08,-5.438703
-0.08,-5.45393
-0.08,-5.46924
-0.08,-5.48078
-0.08,-5.49505
-0.08,-5.50675
-0.08,-5.519557
-0.08,-5.530949
-0.08,-5.54139
-0.08,-5.548124
0.08,-4.892255
0.08,-3.88688
0.08,-2.88683
0.08,-1.8868
0.08,-0.8867777
0.08,-0.0289521
0.08,0.466804
0.08,0.728714
0.08,0.9009741
0.08,1.0316
0.08,1.10993
0.08,1.16867
0.08,1.23187
0.08,1.30247
0.08,1.39129
0.08,1.51647
0.08,1.67821
0.08,1.863144
0.08,2.02084
0.08,2.121963
0.08,2.20892
0.08,2.30584
0.08,2.42415
0.08,2.57508
0.08,2.75425
0.08,2.93277
0.08,3.10629
0.08,3.27944
0.08,3.44741
0.08,3.59927
0.08,3.73365
0.08,3.84998
0.08,3.963195
0.08,4.0795
0.08,4.20138
0.08,4.326
0.08,4.44657
0.08,4.558108
0.08,4.65837
0.08,4.74596
0.08,4.82191
0.08,4.885892
0.08,4.945888
0.08,4.99814
0.08,5.04598
0.08,5.090707
0.08,5.131639
0.08,5.162324
0.08,5.190376
0.08,5.21427
0.08,5.231671
0.08,5.24573
0.08,5.25612
0.08,5.263596
0.08,5.268634
0.08,5.27409
0.08,5.27879
0.08,5.283
0.08,5.286438
0.08,5.29003
0.08,5.29319
0.08,5.29558
0.08,5.298193
0.08,5.30086
0.08,5.301819