File: charging_cycle_167.csv
control/mA,Ewe/V
-0.04,-3.82701
-0.04,-3.91213
-0.04,-3.9978
-0.04,-4.071054
-0.04,-4.13116
-0.04,-4.183165
-0.04,-4.229775
-0.04,-4.26933
-0.04,-4.303224
-0.04,-4.33139
0.04,-3.64681
0.04,-2.646176
0.04,-1.64617
0.04,-0.646164
0.04,0.353853
0.04,0.773158
0.04,0.8756322
0.04,0.9530699
0.04,1.03343
0.04,1.117792
0.04,1.19926
0.04,1.28383
0.04,1.375237
0.04,1.48187
0.04,1.60041
0.04,1.72979
0.04,1.86372
0.04,1.97062
0.04,2.04848
0.04,2.10427
0.04,2.14898
0.04,2.18969
0.04,2.22888
0.04,2.26687
0.04,2.30416
0.04,2.34137
0.04,2.38068
0.04,2.42072
0.04,2.46545
0.04,2.51409
0.04,2.56701
0.04,2.62561
0.04,2.6904
0.04,2.76089
0.04,2.83615
0.04,2.91542
0.04,2.998602
0.04,3.08547
0.04,3.17542
0.04,3.27215
0.04,3.37092
0.04,3.471338
0.04,3.569
0.04,3.67898
0.04,3.794294
0.04,3.91852
0.04,4.043839
0.04,4.16204
0.04,4.25807
0.04,4.340622
0.04,4.411209
0.04,4.468667
0.04,4.51792
0.04,4.561409
0.04,4.601464
0.04,4.639171
0.04,4.67577
0.04,4.71031
0.04,4.74342
0.04,4.77458
0.04,4.80595
0.04,4.83433
0.04,4.859348
0.04,4.876522