File: charging_cycle_202.csv
control/mA,Ewe/V
-0.08,-5.649262
-0.08,-5.66922
-0.08,-5.687523
-0.08,-5.70357
-0.08,-5.71964
-0.08,-5.72903
-0.08,-5.74044
-0.08,-5.745382
-0.08,-5.75544
-0.08,-5.759503
0.08,-4.832139
0.08,-3.829305
0.08,-2.829084
0.08,-1.82902
0.08,-0.828957
0.08,0.171092
0.08,0.7864968
0.08,1.00041
0.08,1.08121
0.08,1.1575
0.08,1.24086
0.08,1.33589
0.08,1.44525
0.08,1.58318
0.08,1.76082
0.08,1.963042
0.08,2.13137
0.08,2.24773
0.08,2.34405
0.08,2.438066
0.08,2.53877
0.08,2.65254
0.08,2.79043
0.08,2.954578
0.08,3.13436
0.08,3.32078
0.08,3.51229
0.08,3.70491
0.08,3.88394
0.08,4.048018
0.08,4.19893
0.08,4.345717
0.08,4.49206
0.08,4.64022
0.08,4.78878
0.08,4.926824
0.08,5.045156
0.08,5.141085
0.08,5.21827
0.08,5.283709
0.08,5.33575
0.08,5.377444
0.08,5.410228
0.08,5.435646
0.08,5.45673
0.08,5.473468
0.08,5.487665
0.08,5.50016
0.08,5.51068
0.08,5.520831
0.08,5.528044
0.08,5.538006
0.08,5.54535
0.08,5.5526
0.08,5.55894
0.08,5.565065
0.08,5.571057
0.08,5.57608
0.08,5.58024
0.08,5.586762
0.08,5.591304
0.08,5.59659
0.08,5.6005
0.08,5.60539
0.08,5.60808