File: charging_cycle_214.csv
control/mA,Ewe/V
-0.08,-6.38029
-0.08,-6.416126
-0.08,-6.453299
-0.08,-6.491579
-0.08,-6.526901
-0.08,-6.564074
-0.08,-6.597488
-0.08,-6.632161
-0.08,-6.66754
-0.08,-6.693894
0.08,-5.427607
0.08,-4.35878
0.08,-3.3538
0.08,-2.35373
0.08,-1.35371
0.08,-0.35353
0.08,0.580938
0.08,0.970702
0.08,1.12144
0.08,1.17533
0.08,1.23246
0.08,1.30099
0.08,1.38432
0.08,1.49004
0.08,1.63011
0.08,1.80969
0.08,2.006856
0.08,2.18994
0.08,2.34561
0.08,2.479819
0.08,2.611337
0.08,2.75266
0.08,2.91704
0.08,3.10136
0.08,3.29444
0.08,3.50334
0.08,3.707334
0.08,3.89654
0.08,4.0675
0.08,4.22609
0.08,4.38631
0.08,4.539464
0.08,4.700255
0.08,4.851314
0.08,4.98411
0.08,5.095859
0.08,5.187666
0.08,5.26791
0.08,5.339698
0.08,5.40347
0.08,5.461694
0.08,5.513561
0.08,5.55902
0.08,5.59699
0.08,5.630137
0.08,5.65922
0.08,5.68723
0.08,5.710876
0.08,5.73212
0.08,5.7523
0.08,5.76912
0.08,5.785661
0.08,5.79936
0.08,5.813045
0.08,5.825353
0.08,5.83644
0.08,5.8469
0.08,5.857298
0.08,5.86646
0.08,5.87567
0.08,5.884414
0.08,5.891589
0.08,5.89894
0.08,5.9047
0.08,5.91306
0.08,5.91592