File: charging_cycle_73.csv
control/mA,Ewe/V
-0.01,-0.576181
-0.01,-0.5791772
-0.01,-0.583299
-0.01,-0.5870202
-0.01,-0.590932
-0.01,-0.594291
-0.01,-0.597592
-0.01,-0.60116
-0.01,-0.604939
-0.01,-0.6078776
0.01,-0.327774
0.01,0.209702
0.01,0.2590504
0.01,0.2880943
0.01,0.309887
0.01,0.326508
0.01,0.3407817
0.01,0.353643
0.01,0.364902
0.01,0.3754741
0.01,0.385206
0.01,0.394824
0.01,0.403449
0.01,0.411273
0.01,0.418925
0.01,0.426349
0.01,0.4335619
0.01,0.440374
0.01,0.447111
0.01,0.4534461
0.01,0.4596098
0.01,0.465506
0.01,0.4714602
0.01,0.477242
0.01,0.482681
0.01,0.488367
0.01,0.493253
0.01,0.4985958
0.01,0.5039199
0.01,0.508958
0.01,0.514148
0.01,0.519262
0.01,0.5241858
0.01,0.5294717
0.01,0.5342996
0.01,0.5386314
0.01,0.543497
0.01,0.5483254
0.01,0.5527144
0.01,0.5575423
0.01,0.5620077
0.01,0.5664158
0.01,0.571454
0.01,0.5757091
0.01,0.580174
0.01,0.5847352
0.01,0.58943
0.01,0.5940667
0.01,0.5983794
0.01,0.602692
0.01,0.6071956
0.01,0.6115083
0.01,0.6161454
0.01,0.6204963
0.01,0.6249616
0.01,0.628683
0.01,0.633396
0.01,0.63769
0.01,0.642022
0.01,0.646048
0.01,0.650189