File: charging_cycle_162.csv
control/mA,Ewe/V
-0.04,-3.588662
-0.04,-3.649574
-0.04,-3.70999
-0.04,-3.765826
-0.04,-3.81666
-0.04,-3.86427
-0.04,-3.90923
-0.04,-3.94946
-0.04,-3.9885
-0.04,-4.021019
0.04,-3.362185
0.04,-2.3619
0.04,-1.3619
0.04,-0.361793
0.04,0.55781
0.04,0.786306
0.04,0.884868
0.04,0.963527
0.04,1.04516
0.04,1.12556
0.04,1.20147
0.04,1.28284
0.04,1.37585
0.04,1.48097
0.04,1.59765
0.04,1.72588
0.04,1.85545
0.04,1.9635
0.04,2.04416
0.04,2.10448
0.04,2.15177
0.04,2.19551
0.04,2.23709
0.04,2.27773
0.04,2.317654
0.04,2.35948
0.04,2.4029
0.04,2.449821
0.04,2.50026
0.04,2.55535
0.04,2.615898
0.04,2.6815
0.04,2.7545
0.04,2.833498
0.04,2.91634
0.04,3.0002
0.04,3.091363
0.04,3.18557
0.04,3.28667
0.04,3.38476
0.04,3.48964
0.04,3.596597
0.04,3.71121
0.04,3.83553
0.04,3.96539
0.04,4.086069
0.04,4.18789
0.04,4.272039
0.04,4.340985
0.04,4.39974
0.04,4.44957
0.04,4.492845
0.04,4.53265
0.04,4.568718
0.04,4.59946
0.04,4.63045
0.04,4.660544
0.04,4.689416
0.04,4.717181
0.04,4.7417
0.04,4.76519
0.04,4.79141
0.04,4.81429
0.04,4.82118