File: charging_cycle_112.csv
control/mA,Ewe/V
-0.02,-1.51238
-0.02,-1.54923
-0.02,-1.58268
-0.02,-1.61796
-0.02,-1.65245
-0.02,-1.68798
-0.02,-1.72172
-0.02,-1.75637
-0.02,-1.78814
-0.02,-1.80356
0.02,-1.12716
0.02,-0.127075
0.02,0.436062
0.02,0.488291
0.02,0.524148
0.02,0.5525999
0.02,0.5769876
0.02,0.5999251
0.02,0.6226335
0.02,0.646105
0.02,0.670531
0.02,0.6967508
0.02,0.7239246
0.02,0.750888
0.02,0.776459
0.02,0.7999883
0.02,0.8212083
0.02,0.8414742
0.02,0.8620835
0.02,0.8830745
0.02,0.904867
0.02,0.9269266
0.02,0.950952
0.02,0.9761409
0.02,1.00358
0.02,1.03257
0.02,1.06526
0.02,1.09798
0.02,1.13313
0.02,1.17164
0.02,1.211927
0.02,1.25267
0.02,1.29818
0.02,1.34642
0.02,1.39724
0.02,1.44955
0.02,1.50574
0.02,1.56559
0.02,1.623904
0.02,1.68842
0.02,1.75208
0.02,1.81757
0.02,1.88213
0.02,1.94615
0.02,2.007047
0.02,2.06588
0.02,2.120303
0.02,2.17171
0.02,2.22045
0.02,2.2659
0.02,2.30991
0.02,2.353415
0.02,2.39536
0.02,2.43604
0.02,2.47598
0.02,2.51672
0.02,2.555501
0.02,2.59464
0.02,2.634427
0.02,2.67236
0.02,2.706121
0.02,2.74217