File: charging_cycle_216.csv
control/mA,Ewe/V
-0.08,-6.36687
-0.08,-6.400707
-0.08,-6.43296
-0.08,-6.46515
-0.08,-6.497628
-0.08,-6.52862
-0.08,-6.560353
-0.08,-6.59115
-0.08,-6.621265
-0.08,-6.64447
0.08,-5.38585
0.08,-4.366718
0.08,-3.35817
0.08,-2.357779
0.08,-1.35761
0.08,-0.3575184
0.08,0.5425624
0.08,0.9362008
0.08,1.10016
0.08,1.16619
0.08,1.22029
0.08,1.28883
0.08,1.3769
0.08,1.47912
0.08,1.61364
0.08,1.79218
0.08,1.993021
0.08,2.184268
0.08,2.3462
0.08,2.48501
0.08,2.623779
0.08,2.77923
0.08,2.95496
0.08,3.14594
0.08,3.34339
0.08,3.55313
0.08,3.75376
0.08,3.94327
0.08,4.11565
0.08,4.281599
0.08,4.445768
0.08,4.60669
0.08,4.761396
0.08,4.90469
0.08,5.021379
0.08,5.12811
0.08,5.218694
0.08,5.29661
0.08,5.369887
0.08,5.43349
0.08,5.494287
0.08,5.545772
0.08,5.594338
0.08,5.635232
0.08,5.67227
0.08,5.70479
0.08,5.734615
0.08,5.75799
0.08,5.784707
0.08,5.80883
0.08,5.82974
0.08,5.8485
0.08,5.8639
0.08,5.88077
0.08,5.89512
0.08,5.907008
0.08,5.91819
0.08,5.927789
0.08,5.93659
0.08,5.9451
0.08,5.95315
0.08,5.960974
0.08,5.96273
0.08,5.96865
0.08,5.97479
0.08,5.98069