File: charging_cycle_200.csv
control/mA,Ewe/V
-0.08,-5.517973
-0.08,-5.532495
-0.08,-5.548372
-0.08,-5.56238
-0.08,-5.5757
-0.08,-5.588426
-0.08,-5.60047
-0.08,-5.613062
-0.08,-5.62356
-0.08,-5.629111
0.08,-4.80168
0.08,-3.79923
0.08,-2.79922
0.08,-1.79922
0.08,-0.7992071
0.08,0.20081
0.08,0.7706391
0.08,0.946486
0.08,1.033809
0.08,1.1126
0.08,1.199695
0.08,1.29893
0.08,1.41083
0.08,1.54574
0.08,1.72002
0.08,1.92394
0.08,2.08874
0.08,2.19938
0.08,2.289717
0.08,2.37425
0.08,2.46263
0.08,2.561741
0.08,2.68139
0.08,2.825426
0.08,2.98963
0.08,3.16464
0.08,3.34415
0.08,3.52771
0.08,3.71132
0.08,3.88351
0.08,4.039641
0.08,4.18915
0.08,4.33574
0.08,4.486395
0.08,4.643045
0.08,4.79034
0.08,4.92036
0.08,5.027772
0.08,5.11767
0.08,5.1907
0.08,5.251326
0.08,5.30107
0.08,5.339774
0.08,5.370631
0.08,5.395114
0.08,5.414235
0.08,5.429845
0.08,5.442821
0.08,5.45442
0.08,5.46458
0.08,5.473468
0.08,5.481063
0.08,5.487646
0.08,5.49446
0.08,5.50322
0.08,5.509343
0.08,5.51444
0.08,5.52129
0.08,5.52663
0.08,5.53215
0.08,5.53759
0.08,5.542452
0.08,5.54745
0.08,5.55226
0.08,5.55476