File: charging_cycle_133.csv
control/mA,Ewe/V
-0.02,-2.318955
-0.02,-2.35157
-0.02,-2.381966
-0.02,-2.40967
-0.02,-2.43929
-0.02,-2.46601
-0.02,-2.4937
-0.02,-2.51619
-0.02,-2.54314
-0.02,-2.55215
0.02,-1.80999
0.02,-0.8099316
0.02,0.190098
0.02,0.372211
0.02,0.452816
0.02,0.5107706
0.02,0.5493368
0.02,0.5779227
0.02,0.6045431
0.02,0.631278
0.02,0.6589289
0.02,0.6874957
0.02,0.7176082
0.02,0.748789
0.02,0.7799133
0.02,0.8090717
0.02,0.836608
0.02,0.86298
0.02,0.888017
0.02,0.912882
0.02,0.938338
0.02,0.9654546
0.02,0.994231
0.02,1.02383
0.02,1.05766
0.02,1.09285
0.02,1.13081
0.02,1.16806
0.02,1.2116
0.02,1.25492
0.02,1.30341
0.02,1.353082
0.02,1.40714
0.02,1.465
0.02,1.52538
0.02,1.59099
0.02,1.659894
0.02,1.73058
0.02,1.80502
0.02,1.88144
0.02,1.95722
0.02,2.03317
0.02,2.10412
0.02,2.16887
0.02,2.230656
0.02,2.28758
0.02,2.341221
0.02,2.39091
0.02,2.435032
0.02,2.48161
0.02,2.52743
0.02,2.569794
0.02,2.61542
0.02,2.65662
0.02,2.69954
0.02,2.74179
0.02,2.783673
0.02,2.82558
0.02,2.86802
0.02,2.90971
0.02,2.946029
0.02,2.98927