File: charging_cycle_269.csv
control/mA,Ewe/V
-0.08,-5.41294
-0.08,-5.42609
-0.08,-5.437234
-0.08,-5.449523
-0.08,-5.45958
-0.08,-5.46998
-0.08,-5.4796
-0.08,-5.488719
-0.08,-5.497249
-0.08,-5.50154
0.08,-4.86308
0.08,-3.8607
0.08,-2.86059
0.08,-1.86048
0.08,-0.8604817
0.08,0.01152232
0.08,0.5042061
0.08,0.7759441
0.08,0.942021
0.08,1.056193
0.08,1.139699
0.08,1.20399
0.08,1.27467
0.08,1.35764
0.08,1.464754
0.08,1.61347
0.08,1.7874
0.08,1.9609
0.08,2.07893
0.08,2.164
0.08,2.25037
0.08,2.35376
0.08,2.483292
0.08,2.64996
0.08,2.78556