File: charging_cycle_21.csv
control/mA,Ewe/V
-0.01,-2.08372
-0.01,-2.096597
-0.01,-2.11011
-0.01,-2.12202
-0.01,-2.13461
-0.01,-2.14623
-0.01,-2.15768
-0.01,-2.1694
-0.01,-2.181
-0.01,-2.19317
0.01,-0.8953487
0.01,0.117209
0.01,1.11726
0.01,1.16725
0.01,1.20559
0.01,1.23502
0.01,1.26019
0.01,1.28223
0.01,1.30202
0.01,1.31986
0.01,1.336709
0.01,1.35159
0.01,1.36655
0.01,1.38075
0.01,1.3939
0.01,1.40684
0.01,1.41924
0.01,1.43172
0.01,1.44403
0.01,1.45615
0.01,1.46794
0.01,1.48031
0.01,1.49233
0.01,1.5042
0.01,1.51622
0.01,1.52828
0.01,1.54044
0.01,1.55318
0.01,1.56585
0.01,1.578029
0.01,1.59072
0.01,1.6028
0.01,1.61503
0.01,1.62743
0.01,1.63965
0.01,1.65167
0.01,1.66375
0.01,1.676305
0.01,1.68795
0.01,1.70033
0.01,1.71262
0.01,1.72455
0.01,1.73699
0.01,1.74916
0.01,1.76151
0.01,1.77361
0.01,1.78525
0.01,1.79676
0.01,1.8091
0.01,1.82133
0.01,1.83276
0.01,1.84437
0.01,1.85618
0.01,1.86786
0.01,1.87879
0.01,1.89047
0.01,1.90223
0.01,1.91362
0.01,1.92499
0.01,1.93604
0.01,1.94678
0.01,1.958
0.01,1.96663