File: charging_cycle_94.csv
control/mA,Ewe/V
-0.01,-0.641291
-0.01,-0.646749
-0.01,-0.6509855
-0.01,-0.6555272
-0.01,-0.6597635
-0.01,-0.6659463
-0.01,-0.6670913
-0.01,-0.6739229
-0.01,-0.679839
-0.01,-0.683865
0.01,-0.377791
0.01,0.216381
0.01,0.2685536
0.01,0.296987
0.01,0.318226
0.01,0.336507
0.01,0.352002
0.01,0.365589
0.01,0.37826
0.01,0.389996
0.01,0.401484
0.01,0.412418
0.01,0.422093
0.01,0.431844
0.01,0.4413858
0.01,0.450546
0.01,0.459533
0.01,0.467968
0.01,0.4760591
0.01,0.483349
0.01,0.490505
0.01,0.498768
0.01,0.505943
0.01,0.512698
0.01,0.519129
0.01,0.5259032
0.01,0.532658
0.01,0.5393756
0.01,0.545864
0.01,0.551818
0.01,0.5593552
0.01,0.56613
0.01,0.5721788
0.01,0.5784761
0.01,0.5838765
0.01,0.590823
0.01,0.5966238
0.01,0.602578
0.01,0.6088367
0.01,0.6154966
0.01,0.62105
0.01,0.6276523
0.01,0.632862
0.01,0.640075
0.01,0.645972
0.01,0.6526315
0.01,0.6590815
0.01,0.6660849
0.01,0.6720005
0.01,0.678584
0.01,0.6843661
0.01,0.6911786
0.01,0.69761
0.01,0.7047465
0.01,0.711712
0.01,0.718753
0.01,0.725508
0.01,0.732836
0.01,0.739248
0.01,0.7467284
0.01,0.753579