File: charging_cycle_259.csv
control/mA,Ewe/V
-0.08,-5.42473
-0.08,-5.44132
-0.08,-5.45653
-0.08,-5.471297
-0.08,-5.48656
-0.08,-5.50032
-0.08,-5.51231
-0.08,-5.52427
-0.08,-5.5361
-0.08,-5.539632
0.08,-4.83751
0.08,-3.833503
0.08,-2.833015
0.08,-1.833
0.08,-0.833003
0.08,0.0574544
0.08,0.516591
0.08,0.7863251
0.08,0.929884
0.08,1.02018
0.08,1.08579
0.08,1.14672
0.08,1.21349
0.08,1.29076
0.08,1.3852
0.08,1.51393
0.08,1.67571
0.08,1.8582
0.08,2.01449
0.08,2.12481
0.08,2.21787
0.08,2.31647
0.08,2.43419
0.08,2.579755
0.08,2.75948
0.08,2.93111
0.08,3.103404
0.08,3.27761
0.08,3.44552
0.08,3.59528
0.08,3.72775
0.08,3.85021
0.08,3.96858
0.08,4.084161
0.08,4.2025
0.08,4.321444
0.08,4.437658
0.08,4.542174
0.08,4.63919
0.08,4.722639
0.08,4.79534
0.08,4.861504
0.08,4.91927
0.08,4.97281
0.08,5.02153
0.08,5.065403
0.08,5.10952
0.08,5.14954
0.08,5.186273
0.08,5.215584
0.08,5.24081
0.08,5.2614
0.08,5.27745
0.08,5.290713
0.08,5.301475
0.08,5.3135
0.08,5.32136
0.08,5.32781
0.08,5.33365
0.08,5.33838
0.08,5.343362
0.08,5.349144
0.08,5.35275
0.08,5.35598
0.08,5.357483