File: charging_cycle_18.csv
control/mA,Ewe/V
-0.01,-2.04858
-0.01,-2.06116
-0.01,-2.07305
-0.01,-2.08423
-0.01,-2.09681
-0.01,-2.1082
-0.01,-2.12016
-0.01,-2.130946
-0.01,-2.142262
-0.01,-2.153139
0.01,-0.8588784
0.01,0.160355
0.01,1.14365
0.01,1.184944
0.01,1.21532
0.01,1.24055
0.01,1.26204
0.01,1.28091
0.01,1.298658
0.01,1.314554
0.01,1.32944
0.01,1.34373
0.01,1.35654
0.01,1.36919
0.01,1.3811
0.01,1.39312
0.01,1.40506
0.01,1.416532
0.01,1.42754
0.01,1.43855
0.01,1.4501
0.01,1.461529
0.01,1.47271
0.01,1.4846
0.01,1.49592
0.01,1.50763
0.01,1.51903
0.01,1.53067
0.01,1.54257
0.01,1.55481
0.01,1.56608
0.01,1.57774
0.01,1.58938
0.01,1.60072
0.01,1.612378
0.01,1.62409
0.01,1.6349
0.01,1.646307
0.01,1.65791
0.01,1.66907
0.01,1.68037
0.01,1.69209
0.01,1.70296
0.01,1.71394
0.01,1.72508
0.01,1.73638
0.01,1.7476
0.01,1.758876
0.01,1.77
0.01,1.78046
0.01,1.79166
0.01,1.80217
0.01,1.81269
0.01,1.82355
0.01,1.83414
0.01,1.84471
0.01,1.85561
0.01,1.86612
0.01,1.87637
0.01,1.88671
0.01,1.89696
0.01,1.907187