File: charging_cycle_16.csv
control/mA,Ewe/V
-0.01,-2.02002
-0.01,-2.031792
-0.01,-2.04385
-0.01,-2.05513
-0.01,-2.06654
-0.01,-2.077953
-0.01,-2.0891
-0.01,-2.099841
-0.01,-2.11089
-0.01,-2.12146
0.01,-0.832508
0.01,0.191326
0.01,1.12264
0.01,1.16378
0.01,1.19349
0.01,1.21771
0.01,1.23845
0.01,1.25719
0.01,1.27406
0.01,1.28967
0.01,1.30398
0.01,1.31753
0.01,1.33055
0.01,1.3431
0.01,1.35488
0.01,1.36644
0.01,1.3773
0.01,1.38844
0.01,1.3992
0.01,1.4101
0.01,1.42123
0.01,1.43241
0.01,1.44344
0.01,1.45409
0.01,1.46514
0.01,1.47628
0.01,1.487577
0.01,1.49836
0.01,1.5092
0.01,1.52061
0.01,1.53173
0.01,1.54234
0.01,1.553775
0.01,1.56488
0.01,1.57606
0.01,1.58692
0.01,1.59801
0.01,1.60887
0.01,1.61948
0.01,1.63035
0.01,1.64104
0.01,1.65157
0.01,1.66218
0.01,1.673061
0.01,1.68316
0.01,1.69354
0.01,1.70401
0.01,1.71479
0.01,1.72527
0.01,1.73525
0.01,1.74556
0.01,1.75557
0.01,1.76609
0.01,1.77613
0.01,1.7863
0.01,1.796488
0.01,1.806163
0.01,1.81603
0.01,1.82628
0.01,1.83647
0.01,1.8458
0.01,1.85605