File: charging_cycle_265.csv
control/mA,Ewe/V
-0.08,-5.416243
-0.08,-5.43071
-0.08,-5.44437
-0.08,-5.456584
-0.08,-5.468262
-0.08,-5.48078
-0.08,-5.49099
-0.08,-5.50191
-0.08,-5.51238
-0.08,-5.51727
0.08,-4.881835
0.08,-3.87947
0.08,-2.87918
0.08,-1.87915
0.08,-0.8791446
0.08,-0.0329404
0.08,0.464571
0.08,0.7276648
0.08,0.900955
0.08,1.02001
0.08,1.104
0.08,1.17239
0.08,1.23364
0.08,1.31244
0.08,1.40548
0.08,1.53137
0.08,1.69777
0.08,1.88335
0.08,2.03163
0.08,2.12656
0.08,2.21102
0.08,2.30693
0.08,2.424002
0.08,2.57544
0.08,2.75396
0.08,2.93149
0.08,3.105484
0.08,3.27996
0.08,3.44905
0.08,3.60133
0.08,3.735233
0.08,3.851504
0.08,3.96402
0.08,4.08092
0.08,4.203398
0.08,4.32839
0.08,4.449661
0.08,4.561753
0.08,4.6619
0.08,4.74779
0.08,4.82269
0.08,4.888582
0.08,4.94675
0.08,4.998766
0.08,5.0354
0.08,5.090344
0.08,5.1291
0.08,5.16108
0.08,5.18809
0.08,5.209611
0.08,5.226671
0.08,5.23995
0.08,5.25014
0.08,5.25743
0.08,5.26279
0.08,5.267184
0.08,5.271897
0.08,5.2761
0.08,5.27999
0.08,5.282736
0.08,5.2863
0.08,5.289396
0.08,5.292182
0.08,5.29461
0.08,5.295407