File: charging_cycle_107.csv
control/mA,Ewe/V
-0.02,-1.41147
-0.02,-1.44179
-0.02,-1.47452
-0.02,-1.50748
-0.02,-1.53881
-0.02,-1.57039
-0.02,-1.60405
-0.02,-1.63542
-0.02,-1.66674
-0.02,-1.6754
0.02,-1.0038
0.02,-0.00374386
0.02,0.446061
0.02,0.500256
0.02,0.536704
0.02,0.564679
0.02,0.588571
0.02,0.6112793
0.02,0.6337015
0.02,0.657154
0.02,0.6819235
0.02,0.707876
0.02,0.734134
0.02,0.7591322
0.02,0.7813063
0.02,0.8022783
0.02,0.8217235
0.02,0.8406536
0.02,0.8595837
0.02,0.8778649
0.02,0.8969476
0.02,0.9172326
0.02,0.9384144
0.02,0.9595962
0.02,0.983411
0.02,1.00688
0.02,1.03364
0.02,1.06054
0.02,1.089626
0.02,1.120578
0.02,1.15235
0.02,1.18742
0.02,1.22422
0.02,1.26259
0.02,1.30293
0.02,1.34566
0.02,1.38903
0.02,1.434069
0.02,1.48153
0.02,1.52889
0.02,1.57818
0.02,1.62745
0.02,1.67892
0.02,1.73113
0.02,1.78397
0.02,1.83645
0.02,1.88877
0.02,1.94096
0.02,1.99205
0.02,2.04224
0.02,2.08971
0.02,2.13385
0.02,2.17795
0.02,2.21945
0.02,2.26033
0.02,2.29996
0.02,2.33813
0.02,2.37429
0.02,2.410625
0.02,2.4465
0.02,2.478712
0.02,2.51356