File: charging_cycle_134.csv
control/mA,Ewe/V
-0.02,-2.335576
-0.02,-2.36714
-0.02,-2.39471
-0.02,-2.421391
-0.02,-2.44763
-0.02,-2.47118
-0.02,-2.49282
-0.02,-2.50927
-0.02,-2.53171
-0.02,-2.53806
0.02,-1.808309
0.02,-0.8082332
0.02,0.162886
0.02,0.351315
0.02,0.4340771
0.02,0.492127
0.02,0.52846
0.02,0.5538594
0.02,0.577312
0.02,0.5997724
0.02,0.622557
0.02,0.646277
0.02,0.6711609
0.02,0.6971134
0.02,0.723009
0.02,0.7473582
0.02,0.7698949
0.02,0.790829
0.02,0.8103693
0.02,0.8281735
0.02,0.8463593
0.02,0.8643544
0.02,0.882559
0.02,0.9016802
0.02,0.922442
0.02,0.9441392
0.02,0.9681071
0.02,0.9923422
0.02,1.01826
0.02,1.0464
0.02,1.07694
0.02,1.10781
0.02,1.14172
0.02,1.17586
0.02,1.21301
0.02,1.25286
0.02,1.2956
0.02,1.339018
0.02,1.38728
0.02,1.4371
0.02,1.48857
0.02,1.54351
0.02,1.60034
0.02,1.65675
0.02,1.71909
0.02,1.78155
0.02,1.8415
0.02,1.904439
0.02,1.963271
0.02,2.018153
0.02,2.068455
0.02,2.11212
0.02,2.151961
0.02,2.19127
0.02,2.226572
0.02,2.25855
0.02,2.29143
0.02,2.322043
0.02,2.35183
0.02,2.38074
0.02,2.41057
0.02,2.43646