File: charging_cycle_47.csv
control/mA,Ewe/V
-0.01,-0.485252
-0.01,-0.487542
-0.01,-0.490004
-0.01,-0.492007
-0.01,-0.494221
-0.01,-0.49653
-0.01,-0.498629
-0.01,-0.500709
-0.01,-0.5029036
-0.01,-0.504793
0.01,-0.256196
0.01,0.200944
0.01,0.245425
0.01,0.2739731
0.01,0.295479
0.01,0.313474
0.01,0.3289695
0.01,0.3425373
0.01,0.354579
0.01,0.365036
0.01,0.3750161
0.01,0.383909
0.01,0.392057
0.01,0.4000908
0.01,0.4077239
0.01,0.414536
0.01,0.421082
0.01,0.4272646
0.01,0.433257
0.01,0.438981
0.01,0.444668
0.01,0.449591
0.01,0.454572
0.01,0.4592854
0.01,0.464018
0.01,0.468712
0.01,0.4732158
0.01,0.477471
0.01,0.4818221
0.01,0.4856768
0.01,0.4897796
0.01,0.4936534
0.01,0.497413
0.01,0.501267
0.01,0.504836
0.01,0.508023
0.01,0.5115339
0.01,0.5149879
0.01,0.5185373
0.01,0.5216096
0.01,0.5245674
0.01,0.527869
0.01,0.530807
0.01,0.533918
0.01,0.536799
0.01,0.5394901
0.01,0.5423525
0.01,0.5449859
0.01,0.547505
0.01,0.5503863
0.01,0.552562
0.01,0.5553287
0.01,0.557867
0.01,0.5598132
0.01,0.5622749
0.01,0.564508
0.01,0.566721
0.01,0.568877
0.01,0.571015
0.01,0.5730375
0.01,0.574812