File: charging_cycle_272.csv
control/mA,Ewe/V
-0.16,-0.00233174
-0.16,-0.00231265
-0.16,-0.00221724
-0.16,-0.00227449
-0.16,-0.00235082
-0.16,-0.0022554
-0.16,-0.00235082
-0.16,-0.0022554
-0.16,-0.00217907
-0.16,-0.00215999
0.16,0.00278295
0.16,0.0020443
0.16,0.00206338
0.16,0.00212063
0.16,0.0020443
0.16,0.0020443
0.16,0.00221605
0.16,0.00212063
0.16,0.00233054
0.16,0.00227329
0.16,0.00231146
0.16,0.00212063
0.16,0.002158798
0.16,0.00223513
0.16,0.00217788
0.16,0.00225421
0.16,0.00233054
0.16,0.00225421
0.16,0.00225421
0.16,0.00231146
0.16,0.00233054
0.16,0.00227329
0.16,0.00227329
0.16,0.00231146
0.16,0.00227329
0.16,0.002368708
0.16,0.00221605