File: charging_cycle_263.csv
control/mA,Ewe/V
-0.08,-5.43607
-0.08,-5.45256
-0.08,-5.468186
-0.08,-5.483681
-0.08,-5.49755
-0.08,-5.51055
-0.08,-5.523736
-0.08,-5.53541
-0.08,-5.54698
-0.08,-5.552818
0.08,-4.892255
0.08,-3.88674
0.08,-2.88627
0.08,-1.886245
0.08,-0.8861861
0.08,-0.00431634
0.08,0.4738455
0.08,0.7279892
0.08,0.89315
0.08,1.007
0.08,1.08405
0.08,1.15233
0.08,1.2166
0.08,1.29246
0.08,1.39073
0.08,1.52036
0.08,1.68026
0.08,1.86717
0.08,2.02266
0.08,2.123356
0.08,2.21144
0.08,2.30991
0.08,2.43078
0.08,2.58348
0.08,2.75797
0.08,2.93603
0.08,3.11199
0.08,3.28627
0.08,3.45393
0.08,3.60639
0.08,3.738687
0.08,3.85832
0.08,3.97171
0.08,4.09095
0.08,4.21491
0.08,4.339191
0.08,4.459355
0.08,4.57072
0.08,4.66793
0.08,4.753591
0.08,4.825915
0.08,4.89116
0.08,4.949
0.08,5.001
0.08,5.049774
0.08,5.09435
0.08,5.135341
0.08,5.165072
0.08,5.19517
0.08,5.218599
0.08,5.23574
0.08,5.249933
0.08,5.259951
0.08,5.268023
0.08,5.273214
0.08,5.278996
0.08,5.283824
0.08,5.288499
0.08,5.29253
0.08,5.29602
0.08,5.29802
0.08,5.300674
0.08,5.30314
0.08,5.305406
0.08,5.306322