File: charging_cycle_95.csv
control/mA,Ewe/V
-0.01,-0.645108
-0.01,-0.6499741
-0.01,-0.6541532
-0.01,-0.660565
-0.01,-0.6672058
-0.01,-0.669687
-0.01,-0.674763
-0.01,-0.678713
-0.01,-0.6811934
-0.01,-0.686708
0.01,-0.379474
0.01,0.218213
0.01,0.269603
0.01,0.299086
0.01,0.320878
0.01,0.339503
0.01,0.353529
0.01,0.367478
0.01,0.3800158
0.01,0.392
0.01,0.403678
0.01,0.414441
0.01,0.424631
0.01,0.434421
0.01,0.443409
0.01,0.452587
0.01,0.461518
0.01,0.469991
0.01,0.478235
0.01,0.486058
0.01,0.493463
0.01,0.50079
0.01,0.507908
0.01,0.5151978
0.01,0.5224874
0.01,0.5292427
0.01,0.5358453
0.01,0.5424479
0.01,0.5484017
0.01,0.555004
0.01,0.56176
0.01,0.568076
0.01,0.5740298
0.01,0.5804798
0.01,0.5868725
0.01,0.5935324
0.01,0.599505
0.01,0.605383
0.01,0.612004
0.01,0.618378
0.01,0.624828
0.01,0.631183
0.01,0.6377852
0.01,0.643167
0.01,0.6493684
0.01,0.6562
0.01,0.662364
0.01,0.6694053
0.01,0.6768094
0.01,0.6828586
0.01,0.6892513
0.01,0.694995
0.01,0.7009681
0.01,0.707323
0.01,0.714841
0.01,0.7216347
0.01,0.72818
0.01,0.73568
0.01,0.7432936
0.01,0.7490184
0.01,0.756251