File: charging_cycle_168.csv
control/mA,Ewe/V
-0.04,-3.83512
-0.04,-3.9198
-0.04,-4.00249
-0.04,-4.075557
-0.04,-4.136145
-0.04,-4.18925
-0.04,-4.23292
-0.04,-4.272119
-0.04,-4.30693
-0.04,-4.33652
0.04,-3.6586
0.04,-2.65833
0.04,-1.65825
0.04,-0.658205
0.04,0.34185
0.04,0.753904
0.04,0.8606714
0.04,0.9407425
0.04,1.023199
0.04,1.10848
0.04,1.19055
0.04,1.27593
0.04,1.37129
0.04,1.47781
0.04,1.59913
0.04,1.731187
0.04,1.86375
0.04,1.96993
0.04,2.04685
0.04,2.10227
0.04,2.144557
0.04,2.184039
0.04,2.221668
0.04,2.257486
0.04,2.29355
0.04,2.3295
0.04,2.36647
0.04,2.40608
0.04,2.4495
0.04,2.49696
0.04,2.548612
0.04,2.6059
0.04,2.669654
0.04,2.73919
0.04,2.81346
0.04,2.89244
0.04,2.975588
0.04,3.06119
0.04,3.148153
0.04,3.24303
0.04,3.34175
0.04,3.43886
0.04,3.53744
0.04,3.64165
0.04,3.75214
0.04,3.87383
0.04,4.00107
0.04,4.12072
0.04,4.224809
0.04,4.308124
0.04,4.37833
0.04,4.438841
0.04,4.48909
0.04,4.53561
0.04,4.57668
0.04,4.615394
0.04,4.65127
0.04,4.685542
0.04,4.71579
0.04,4.746683
0.04,4.77664
0.04,4.805687
0.04,4.831506
0.04,4.84776