File: charging_cycle_207.csv
control/mA,Ewe/V
-0.08,-5.89596
-0.08,-5.919588
-0.08,-5.942029
-0.08,-5.963764
-0.08,-5.98558
-0.08,-6.005346
-0.08,-6.023398
-0.08,-6.04008
-0.08,-6.055743
-0.08,-6.06551
0.08,-4.99093
0.08,-3.98393
0.08,-2.98335
0.08,-1.98326
0.08,-0.983126
0.08,0.0169036
0.08,0.689423
0.08,0.993239
0.08,1.08589
0.08,1.15014
0.08,1.21945
0.08,1.303944
0.08,1.40245
0.08,1.52771
0.08,1.689434
0.08,1.88728
0.08,2.08958
0.08,2.245903
0.08,2.36704
0.08,2.475888
0.08,2.58813
0.08,2.71738
0.08,2.86895
0.08,3.04146
0.08,3.225877
0.08,3.41878
0.08,3.62085
0.08,3.819197
0.08,4.001685
0.08,4.170682
0.08,4.33011
0.08,4.485956
0.08,4.64545
0.08,4.806393
0.08,4.95463
0.08,5.083379
0.08,5.18749
0.08,5.27266
0.08,5.3434
0.08,5.404293
0.08,5.45242
0.08,5.49532
0.08,5.530468
0.08,5.55774
0.08,5.581018
0.08,5.60096
0.08,5.61731
0.08,5.630843
0.08,5.64319
0.08,5.654296
0.08,5.664257
0.08,5.67366
0.08,5.68174
0.08,5.690973
0.08,5.69878
0.08,5.70654
0.08,5.713891
0.08,5.721123
0.08,5.728012
0.08,5.73431
0.08,5.740721
0.08,5.746408
0.08,5.752457
0.08,5.7574
0.08,5.76219