File: charging_cycle_212.csv
control/mA,Ewe/V
-0.08,-6.26959
-0.08,-6.30432
-0.08,-6.33407
-0.08,-6.366167
-0.08,-6.39576
-0.08,-6.42509
-0.08,-6.45206
-0.08,-6.4808
-0.08,-6.51089
-0.08,-6.52862
0.08,-5.24141
0.08,-4.22499
0.08,-3.21927
0.08,-2.21907
0.08,-1.21895
0.08,-0.21894
0.08,0.6787367
0.08,1.03911
0.08,1.150767
0.08,1.19788
0.08,1.2503
0.08,1.3194
0.08,1.4113
0.08,1.52666
0.08,1.670733
0.08,1.85366
0.08,2.05111
0.08,2.23174
0.08,2.37219
0.08,2.49268
0.08,2.62212
0.08,2.770716
0.08,2.94492
0.08,3.137982
0.08,3.338446
0.08,3.54481
0.08,3.74392
0.08,3.92617
0.08,4.08878
0.08,4.24332
0.08,4.400046
0.08,4.562669
0.08,4.72043
0.08,4.864996
0.08,4.991858
0.08,5.095611
0.08,5.181636
0.08,5.258043
0.08,5.3267
0.08,5.389733
0.08,5.446771
0.08,5.49555
0.08,5.54329
0.08,5.58529
0.08,5.61943
0.08,5.65111
0.08,5.67756
0.08,5.70177
0.08,5.723165
0.08,5.74139
0.08,5.758774
0.08,5.77394
0.08,5.787703
0.08,5.799153
0.08,5.81283
0.08,5.82268
0.08,5.83239
0.08,5.84249
0.08,5.85129
0.08,5.858767
0.08,5.86827
0.08,5.87543
0.08,5.882563
0.08,5.887811
0.08,5.893
0.08,5.896417