File: charging_cycle_41.csv
control/mA,Ewe/V
-0.01,-0.464624
-0.01,-0.466665
-0.01,-0.468345
-0.01,-0.470463
-0.01,-0.4722949
-0.01,-0.474146
-0.01,-0.475634
-0.01,-0.477027
-0.01,-0.47842
-0.01,-0.479756
0.01,-0.22686
0.01,0.224034
0.01,0.263764
0.01,0.290155
0.01,0.3107264
0.01,0.3279772
0.01,0.3421938
0.01,0.354636
0.01,0.365875
0.01,0.3762374
0.01,0.3851681
0.01,0.3934691
0.01,0.401045
0.01,0.407896
0.01,0.414727
0.01,0.420986
0.01,0.426902
0.01,0.432531
0.01,0.4379891
0.01,0.443275
0.01,0.44816
0.01,0.452874
0.01,0.457129
0.01,0.461633
0.01,0.4655827
0.01,0.469342
0.01,0.473349
0.01,0.4770705
0.01,0.480334
0.01,0.4836922
0.01,0.486974
0.01,0.490028
0.01,0.4929855
0.01,0.496001
0.01,0.4988248
0.01,0.5016872
0.01,0.504626
0.01,0.507736
0.01,0.5105035
0.01,0.513251
0.01,0.515828
0.01,0.5183083
0.01,0.5205219
0.01,0.5230217
0.01,0.525254
0.01,0.5274298
0.01,0.529567
0.01,0.531704
0.01,0.533651
0.01,0.5356163
0.01,0.537601
0.01,0.5396237
0.01,0.541551
0.01,0.5435166
0.01,0.5456729
0.01,0.5471041
0.01,0.548688
0.01,0.550482
0.01,0.5523709
0.01,0.5542219
0.01,0.555596