File: charging_cycle_31.csv
control/mA,Ewe/V
-0.01,-2.16062
-0.01,-2.174779
-0.01,-2.18903
-0.01,-2.20337
-0.01,-2.21709
-0.01,-2.23058
-0.01,-2.24436
-0.01,-2.257165
-0.01,-2.26995
-0.01,-2.283442
0.01,-0.983118
0.01,0.04885422
0.01,1.04915
0.01,1.17346
0.01,1.20109
0.01,1.22943
0.01,1.25467
0.01,1.27816
0.01,1.29984
0.01,1.31913
0.01,1.33795
0.01,1.35535
0.01,1.37264
0.01,1.38867
0.01,1.40428
0.01,1.41964
0.01,1.43479
0.01,1.449278
0.01,1.46388
0.01,1.47809
0.01,1.49237
0.01,1.50677
0.01,1.52099
0.01,1.53528
0.01,1.54992
0.01,1.56402
0.01,1.57853
0.01,1.59299
0.01,1.60807
0.01,1.62247
0.01,1.63711
0.01,1.65123
0.01,1.66552
0.01,1.68026
0.01,1.694739
0.01,1.7088
0.01,1.72376
0.01,1.73842
0.01,1.75328
0.01,1.76792
0.01,1.78267
0.01,1.79769
0.01,1.8124
0.01,1.82698
0.01,1.84215
0.01,1.85708
0.01,1.87219
0.01,1.88707
0.01,1.90184
0.01,1.91629
0.01,1.93089
0.01,1.94535
0.01,1.960485
0.01,1.97394
0.01,1.98812
0.01,2.002925
0.01,2.01668
0.01,2.03048
0.01,2.043762
0.01,2.05681
0.01,2.06971
0.01,2.08239
0.01,2.0958