File: charging_cycle_169.csv
control/mA,Ewe/V
-0.04,-3.848645
-0.04,-3.932361
-0.04,-4.0151
-0.04,-4.08819
-0.04,-4.150858
-0.04,-4.204223
-0.04,-4.24848
-0.04,-4.28916
-0.04,-4.32477
-0.04,-4.35368
0.04,-3.67214
0.04,-2.67194
0.04,-1.67192
0.04,-0.671887
0.04,0.32813
0.04,0.7485986
0.04,0.8580952
0.04,0.9395021
0.04,1.022054
0.04,1.10978
0.04,1.193245
0.04,1.27832
0.04,1.37371
0.04,1.48057
0.04,1.60314
0.04,1.73787
0.04,1.8712
0.04,1.97653
0.04,2.05157
0.04,2.105533
0.04,2.14738
0.04,2.187035
0.04,2.2247
0.04,2.25959
0.04,2.29502
0.04,2.33059
0.04,2.36836
0.04,2.40711
0.04,2.45079
0.04,2.49724
0.04,2.54842
0.04,2.60634
0.04,2.67005
0.04,2.739
0.04,2.81371
0.04,2.89222
0.04,2.97273
0.04,3.05951
0.04,3.14955
0.04,3.243605
0.04,3.34011
0.04,3.43428
0.04,3.5363
0.04,3.63955
0.04,3.74958
0.04,3.87072
0.04,3.99562
0.04,4.11506
0.04,4.218569
0.04,4.30648
0.04,4.379322
0.04,4.4388
0.04,4.49107
0.04,4.53611
0.04,4.575855
0.04,4.61284
0.04,4.65083
0.04,4.685924
0.04,4.7188
0.04,4.749603
0.04,4.77968
0.04,4.804256
0.04,4.82725
0.04,4.84614