File: charging_cycle_184.csv
control/mA,Ewe/V
-0.08,-5.019246
-0.08,-5.048099
-0.08,-5.07451
-0.08,-5.10063
-0.08,-5.125594
-0.08,-5.15023
-0.08,-5.17622
-0.08,-5.19796
-0.08,-5.22055
-0.08,-5.22717
0.08,-4.42479
0.08,-3.42435
0.08,-2.42413
0.08,-1.42411
0.08,-0.424079
0.08,0.5350056
0.08,0.994384
0.08,1.11999
0.08,1.2309
0.08,1.34879
0.08,1.471185
0.08,1.61774
0.08,1.78708
0.08,1.93951
0.08,2.039373
0.08,2.108357
0.08,2.15944
0.08,2.20171
0.08,2.2435
0.08,2.288629
0.08,2.34206
0.08,2.401637
0.08,2.46917
0.08,2.5505
0.08,2.6416
0.08,2.74453
0.08,2.85166
0.08,2.963604
0.08,3.08325
0.08,3.207157
0.08,3.33644
0.08,3.46575
0.08,3.59351
0.08,3.720253
0.08,3.85024
0.08,3.98306
0.08,4.11912
0.08,4.25025
0.08,4.3727
0.08,4.482521
0.08,4.572267
0.08,4.649991
0.08,4.71243
0.08,4.76676
0.08,4.81616
0.08,4.859348
0.08,4.90017
0.08,4.94188
0.08,4.981687
0.08,5.021322
0.08,5.05628
0.08,5.09479
0.08,5.13017
0.08,5.166637
0.08,5.202436
0.08,5.236575
0.08,5.271191
0.08,5.302353
0.08,5.3321
0.08,5.361204
0.08,5.38624
0.08,5.407823
0.08,5.429234
0.08,5.44713
0.08,5.45192