File: charging_cycle_188.csv
control/mA,Ewe/V
-0.08,-5.116759
-0.08,-5.14914
-0.08,-5.1787
-0.08,-5.204959
-0.08,-5.23026
-0.08,-5.255223
-0.08,-5.2786
-0.08,-5.296957
-0.08,-5.3177
-0.08,-5.31833
0.08,-4.486673
0.08,-3.486312
0.08,-2.48598
0.08,-1.48578
0.08,-0.4857543
0.08,0.463751
0.08,0.951009
0.08,1.069341
0.08,1.15958
0.08,1.26553
0.08,1.38487
0.08,1.52361
0.08,1.69169
0.08,1.87473
0.08,2.013077
0.08,2.101907
0.08,2.167628
0.08,2.22108
0.08,2.27321
0.08,2.33116
0.08,2.39876
0.08,2.478674
0.08,2.571626
0.08,2.674539
0.08,2.78722
0.08,2.90649
0.08,3.03089
0.08,3.161072
0.08,3.29879
0.08,3.43687
0.08,3.57106
0.08,3.7019
0.08,3.82946
0.08,3.96487
0.08,4.10349
0.08,4.24221
0.08,4.380028
0.08,4.50731
0.08,4.62373
0.08,4.72325
0.08,4.80832
0.08,4.87967
0.08,4.94356
0.08,5.00119
0.08,5.053209
0.08,5.10172
0.08,5.1475
0.08,5.19175
0.08,5.234304
0.08,5.275027
0.08,5.31434
0.08,5.35277
0.08,5.385172
0.08,5.410075
0.08,5.431524
0.08,5.4495
0.08,5.46414
0.08,5.47547
0.08,5.48541
0.08,5.493428
0.08,5.49995
0.08,5.505546
0.08,5.510908
0.08,5.51579
0.08,5.517568