File: charging_cycle_180.csv
control/mA,Ewe/V
-0.08,-5.053576
-0.08,-5.08289
-0.08,-5.11632
-0.08,-5.14905
-0.08,-5.17904
-0.08,-5.209768
-0.08,-5.2395
-0.08,-5.268314
-0.08,-5.296499
-0.08,-5.30612
0.08,-4.52675
0.08,-3.526729
0.08,-2.52662
0.08,-1.52645
0.08,-0.526439
0.08,0.473597
0.08,0.918759
0.08,1.03077
0.08,1.14189
0.08,1.2708
0.08,1.39793
0.08,1.53502
0.08,1.69525
0.08,1.85553
0.08,1.97062
0.08,2.04243
0.08,2.0967
0.08,2.13595
0.08,2.16887
0.08,2.19961
0.08,2.23304
0.08,2.26861
0.08,2.307941
0.08,2.35422
0.08,2.408335
0.08,2.47297
0.08,2.53823
0.08,2.627672
0.08,2.72057
0.08,2.81716
0.08,2.9205
0.08,3.029802
0.08,3.14682
0.08,3.26897
0.08,3.39457
0.08,3.52242
0.08,3.65573
0.08,3.79716
0.08,3.94743
0.08,4.095286
0.08,4.23088
0.08,4.348503
0.08,4.44537
0.08,4.522003
0.08,4.58087
0.08,4.62942
0.08,4.67352
0.08,4.69716
0.08,4.722334
0.08,4.74901
0.08,4.77588
0.08,4.80282
0.08,4.83004
0.08,4.85921
0.08,4.88866
0.08,4.918733
0.08,4.94976
0.08,4.98018
0.08,5.00857
0.08,5.039374
0.08,5.068647
0.08,5.097977
0.08,5.126792
0.08,5.154214
0.08,5.16465