File: charging_cycle_64.csv
control/mA,Ewe/V
-0.01,-0.548874
-0.01,-0.5527858
-0.01,-0.555744
-0.01,-0.558606
-0.01,-0.561907
-0.01,-0.565342
-0.01,-0.567918
-0.01,-0.5711243
-0.01,-0.5738722
-0.01,-0.5764293
0.01,-0.306293
0.01,0.205142
0.01,0.252829
0.01,0.282847
0.01,0.303971
0.01,0.321718
0.01,0.3365835
0.01,0.3499605
0.01,0.361849
0.01,0.3730315
0.01,0.3831072
0.01,0.392878
0.01,0.4014075
0.01,0.41009
0.01,0.418048
0.01,0.4256044
0.01,0.432818
0.01,0.439668
0.01,0.446901
0.01,0.4528927
0.01,0.459152
0.01,0.465316
0.01,0.4710022
0.01,0.476822
0.01,0.482662
0.01,0.4883484
0.01,0.4935389
0.01,0.499016
0.01,0.5040535
0.01,0.509263
0.01,0.514148
0.01,0.518919
0.01,0.5236896
0.01,0.5283649
0.01,0.533574
0.01,0.5379826
0.01,0.542849
0.01,0.5472186
0.01,0.5515313
0.01,0.5559394
0.01,0.5604048
0.01,0.564565
0.01,0.56903
0.01,0.5731711
0.01,0.577427
0.01,0.5811858
0.01,0.5856321
0.01,0.5898112
0.01,0.593628
0.01,0.5977687
0.01,0.6021005
0.01,0.6059361
0.01,0.609982
0.01,0.6136074
0.01,0.617844
0.01,0.621565
0.01,0.625362
0.01,0.6294079
0.01,0.6329954
0.01,0.6367738
0.01,0.640361