File: charging_cycle_130.csv
control/mA,Ewe/V
-0.02,-2.24642
-0.02,-2.28111
-0.02,-2.3143
-0.02,-2.34535
-0.02,-2.37485
-0.02,-2.402518
-0.02,-2.42979
-0.02,-2.45521
-0.02,-2.4807
-0.02,-2.49192
0.02,-1.75974
0.02,-0.759649
0.02,0.240426
0.02,0.397725
0.02,0.470964
0.02,0.518213
0.02,0.5490887
0.02,0.575232
0.02,0.600421
0.02,0.6268508
0.02,0.6544253
0.02,0.683183
0.02,0.7127612
0.02,0.743618
0.02,0.773998
0.02,0.8027935
0.02,0.829891
0.02,0.855004
0.02,0.8795633
0.02,0.9033022
0.02,0.927976
0.02,0.9528409
0.02,0.980186
0.02,1.00759
0.02,1.03894
0.02,1.07491
0.02,1.10919
0.02,1.14495
0.02,1.18712
0.02,1.22744
0.02,1.27498
0.02,1.320126
0.02,1.37228
0.02,1.42418
0.02,1.483436
0.02,1.54519
0.02,1.61085
0.02,1.68027
0.02,1.752178
0.02,1.82679
0.02,1.90303
0.02,1.98004
0.02,2.05281
0.02,2.12418
0.02,2.18873
0.02,2.24909
0.02,2.30578
0.02,2.359445
0.02,2.41022
0.02,2.45866
0.02,2.506153
0.02,2.55424
0.02,2.59878
0.02,2.64229
0.02,2.68795
0.02,2.73093
0.02,2.773483
0.02,2.81524
0.02,2.85903
0.02,2.90128
0.02,2.94364
0.02,2.98446