File: charging_cycle_206.csv
control/mA,Ewe/V
-0.08,-5.81595
-0.08,-5.84041
-0.08,-5.86301
-0.08,-5.88532
-0.08,-5.90575
-0.08,-5.92407
-0.08,-5.94262
-0.08,-5.96039
-0.08,-5.976836
-0.08,-5.98651
0.08,-4.963272
0.08,-3.95828
0.08,-2.95827
0.08,-1.958225
0.08,-0.9582234
0.08,0.0419783
0.08,0.6959493
0.08,0.9751677
0.08,1.07232
0.08,1.14609
0.08,1.22279
0.08,1.3107
0.08,1.40852
0.08,1.53168
0.08,1.696
0.08,1.89513
0.08,2.09258
0.08,2.234
0.08,2.34561
0.08,2.449382
0.08,2.5593
0.08,2.68129
0.08,2.827716
0.08,2.99538
0.08,3.177178
0.08,3.366593
0.08,3.56471
0.08,3.762216
0.08,3.94428
0.08,4.1095
0.08,4.26225
0.08,4.41455
0.08,4.56643
0.08,4.720082
0.08,4.870797
0.08,5.00472
0.08,5.11406
0.08,5.20375
0.08,5.27776
0.08,5.33989
0.08,5.39363
0.08,5.43597
0.08,5.47242
0.08,5.49963
0.08,5.52213
0.08,5.540601
0.08,5.558386
0.08,5.57188
0.08,5.584071
0.08,5.594891
0.08,5.60409
0.08,5.613535
0.08,5.621817
0.08,5.629641
0.08,5.63745
0.08,5.64447
0.08,5.65141
0.08,5.65741
0.08,5.664066
0.08,5.669905
0.08,5.675573
0.08,5.681355
0.08,5.686164
0.08,5.69088
0.08,5.694885