File: charging_cycle_125.csv
control/mA,Ewe/V
-0.02,-2.072152
-0.02,-2.1152
-0.02,-2.15491
-0.02,-2.19151
-0.02,-2.22818
-0.02,-2.261
-0.02,-2.2901
-0.02,-2.3235
-0.02,-2.35017
-0.02,-2.364868
0.02,-1.648
0.02,-0.647957
0.02,0.352098
0.02,0.4558887
0.02,0.504187
0.02,0.5338416
0.02,0.5583057
0.02,0.581625
0.02,0.6051919
0.02,0.6293506
0.02,0.655265
0.02,0.682362
0.02,0.711063
0.02,0.7400877
0.02,0.7683873
0.02,0.7956947
0.02,0.8206549
0.02,0.843707
0.02,0.8656901
0.02,0.8879978
0.02,0.9105918
0.02,0.933682
0.02,0.9583749
0.02,0.9848999
0.02,1.01505
0.02,1.04465
0.02,1.07848
0.02,1.11388
0.02,1.15243
0.02,1.19248
0.02,1.2349
0.02,1.27896
0.02,1.32701
0.02,1.3776
0.02,1.43136
0.02,1.48922
0.02,1.55044
0.02,1.612836
0.02,1.6781
0.02,1.75029
0.02,1.82038
0.02,1.89595
0.02,1.97077
0.02,2.04281
0.02,2.113681
0.02,2.17875
0.02,2.23674
0.02,2.29634
0.02,2.35036
0.02,2.3987
0.02,2.45242
0.02,2.50247
0.02,2.5517
0.02,2.59785
0.02,2.64395
0.02,2.68923
0.02,2.729879
0.02,2.77402
0.02,2.81819
0.02,2.86075
0.02,2.902501
0.02,2.94183
0.02,2.94322