File: charging_cycle_171.csv
control/mA,Ewe/V
-0.04,-3.9154
-0.04,-4.00405
-0.04,-4.08434
-0.04,-4.15307
-0.04,-4.20995
-0.04,-4.259143
-0.04,-4.301621
-0.04,-4.34137
-0.04,-4.37591
-0.04,-4.40387
0.04,-3.718953
0.04,-2.718786
0.04,-1.71871
0.04,-0.7186971
0.04,0.28132
0.04,0.740183
0.04,0.85529
0.04,0.9400555
0.04,1.02129
0.04,1.107411
0.04,1.19366
0.04,1.28164
0.04,1.37795
0.04,1.4871
0.04,1.60952
0.04,1.74949
0.04,1.88232
0.04,1.98585
0.04,2.05863
0.04,2.110418
0.04,2.15072
0.04,2.18847
0.04,2.22568
0.04,2.260196
0.04,2.295995
0.04,2.33113
0.04,2.3616
0.04,2.401141
0.04,2.442913
0.04,2.48961
0.04,2.54096
0.04,2.59785
0.04,2.66013
0.04,2.72839
0.04,2.801172
0.04,2.87821
0.04,2.95902
0.04,3.04232
0.04,3.12766
0.04,3.21885
0.04,3.31349
0.04,3.4094
0.04,3.506584
0.04,3.60566
0.04,3.71209
0.04,3.82908
0.04,3.95165
0.04,4.072959
0.04,4.182284
0.04,4.275779
0.04,4.353942
0.04,4.417907
0.04,4.473552
0.04,4.52179
0.04,4.56656
0.04,4.608467
0.04,4.648789
0.04,4.68455
0.04,4.71886
0.04,4.752427
0.04,4.784372
0.04,4.815076
0.04,4.844597
0.04,4.86442