File: charging_cycle_246.csv
control/mA,Ewe/V
-0.08,-6.38941
-0.08,-6.44641
-0.08,-6.51001
-0.08,-6.577947
-0.08,-6.64588
-0.08,-6.70708
-0.08,-6.76206
-0.08,-6.80887
-0.08,-6.85373
-0.08,-6.88459
0.08,-5.79447
0.08,-4.761921
0.08,-3.757731
0.08,-2.75672
0.08,-1.75666
0.08,-0.7566526
0.08,0.152067
0.08,0.5422189
0.08,0.7624717
0.08,0.8788572
0.08,0.966848
0.08,1.05778
0.08,1.15647
0.08,1.26717
0.08,1.38592
0.08,1.52595
0.08,1.70938
0.08,1.9323
0.08,2.14074
0.08,2.3005
0.08,2.44081
0.08,2.586396
0.08,2.754763
0.08,2.94523
0.08,3.14159
0.08,3.342587
0.08,3.54339
0.08,3.73327
0.08,3.901348
0.08,4.078226
0.08,4.248109
0.08,4.42077
0.08,4.58345
0.08,4.72527
0.08,4.84473
0.08,4.941823
0.08,5.03119
0.08,5.10519
0.08,5.17675
0.08,5.24224
0.08,5.303231
0.08,5.36212
0.08,5.41736
0.08,5.468125
0.08,5.51375
0.08,5.556611
0.08,5.59417
0.08,5.628
0.08,5.658227
0.08,5.684618
0.08,5.708472
0.08,5.729253
0.08,5.74807
0.08,5.76471
0.08,5.779555
0.08,5.792
0.08,5.803026
0.08,5.813255
0.08,5.822052
0.08,5.830181
0.08,5.83715
0.08,5.84316
0.08,5.84869
0.08,5.854206
0.08,5.85934
0.08,5.86104