File: charging_cycle_258.csv
control/mA,Ewe/V
-0.08,-5.386646
-0.08,-5.40672
-0.08,-5.424792
-0.08,-5.440211
-0.08,-5.45422
-0.08,-5.46815
-0.08,-5.48147
-0.08,-5.494692
-0.08,-5.507115
-0.08,-5.513813
0.08,-4.757836
0.08,-3.75511
0.08,-2.75491
0.08,-1.75491
0.08,-0.7548397
0.08,0.151418
0.08,0.5889716
0.08,0.817048
0.08,0.937861
0.08,1.01511
0.08,1.08037
0.08,1.14537
0.08,1.21395
0.08,1.2977
0.08,1.39592
0.08,1.52973
0.08,1.69714
0.08,1.87643
0.08,2.02867
0.08,2.13893
0.08,2.23108
0.08,2.32847
0.08,2.43822
0.08,2.56686
0.08,2.71887
0.08,2.8784
0.08,3.04215
0.08,3.20916
0.08,3.38134
0.08,3.54528
0.08,3.69272
0.08,3.82488
0.08,3.948177
0.08,4.06494
0.08,4.179746
0.08,4.29095
0.08,4.402107
0.08,4.505478
0.08,4.59839
0.08,4.68585
0.08,4.762388
0.08,4.83509
0.08,4.8982
0.08,4.959055
0.08,5.01382
0.08,5.06552
0.08,5.11376
0.08,5.156332
0.08,5.193944
0.08,5.22631
0.08,5.253444
0.08,5.266592
0.08,5.291972
0.08,5.30682
0.08,5.32044
0.08,5.33149
0.08,5.3393
0.08,5.34861
0.08,5.35483
0.08,5.35941
0.08,5.36403
0.08,5.368398
0.08,5.372024
0.08,5.37565
0.08,5.37731