File: charging_cycle_44.csv
control/mA,Ewe/V
-0.01,-0.462601
-0.01,-0.4647
-0.01,-0.466723
-0.01,-0.4687455
-0.01,-0.470883
-0.01,-0.472925
-0.01,-0.474871
-0.01,-0.4764549
-0.01,-0.473573
-0.01,-0.472428
0.01,-0.224535
0.01,0.22432
0.01,0.266378
0.01,0.29464
0.01,0.316566
0.01,0.334427
0.01,0.349808
0.01,0.362765
0.01,0.374558
0.01,0.384901
0.01,0.39448
0.01,0.4035066
0.01,0.4115786
0.01,0.419422
0.01,0.426578
0.01,0.433352
0.01,0.439783
0.01,0.445737
0.01,0.451366
0.01,0.4569
0.01,0.462091
0.01,0.467109
0.01,0.4719945
0.01,0.4767652
0.01,0.4813641
0.01,0.4856959
0.01,0.4900086
0.01,0.494035
0.01,0.4980424
0.01,0.5018208
0.01,0.5055992
0.01,0.509244
0.01,0.512851
0.01,0.516343
0.01,0.519625
0.01,0.5229645
0.01,0.5259414
0.01,0.528861
0.01,0.5322196
0.01,0.535311
0.01,0.538192
0.01,0.540864
0.01,0.5437074
0.01,0.546341
0.01,0.548593
0.01,0.551035
0.01,0.553573
0.01,0.555882
0.01,0.558096
0.01,0.5605193
0.01,0.5624848
0.01,0.564794
0.01,0.5669692
0.01,0.5686485
0.01,0.5705
0.01,0.572312
0.01,0.5739535
0.01,0.5760144
0.01,0.577961
0.01,0.5795447
0.01,0.5809569