File: charging_cycle_54.csv
control/mA,Ewe/V
-0.01,-0.519849
-0.01,-0.5221771
-0.01,-0.524925
-0.01,-0.5274249
-0.01,-0.5299819
-0.01,-0.53231
-0.01,-0.534829
-0.01,-0.5374433
-0.01,-0.5397714
-0.01,-0.5414507
0.01,-0.283048
0.01,0.200466
0.01,0.24678
0.01,0.2750799
0.01,0.296204
0.01,0.313741
0.01,0.328435
0.01,0.341602
0.01,0.353434
0.01,0.364139
0.01,0.373852
0.01,0.382687
0.01,0.391236
0.01,0.399137
0.01,0.4065026
0.01,0.4139067
0.01,0.42049
0.01,0.427017
0.01,0.43318
0.01,0.439229
0.01,0.4451451
0.01,0.45087
0.01,0.455908
0.01,0.461117
0.01,0.466289
0.01,0.471098
0.01,0.4753912
0.01,0.480028
0.01,0.484608
0.01,0.489035
0.01,0.493672
0.01,0.497508
0.01,0.501897
0.01,0.5059999
0.01,0.5095684
0.01,0.513595
0.01,0.517335
0.01,0.521304
0.01,0.5249491
0.01,0.5291282
0.01,0.5324104
0.01,0.5357117
0.01,0.5389749
0.01,0.5426387
0.01,0.5459019
0.01,0.5490887
0.01,0.552237
0.01,0.5557486
0.01,0.559088
0.01,0.5621604
0.01,0.5654617
0.01,0.568515
0.01,0.571377
0.01,0.574755
0.01,0.5773884
0.01,0.579945
0.01,0.582598
0.01,0.5854413
0.01,0.5882846
0.01,0.5911661
0.01,0.5937232