File: charging_cycle_19.csv
control/mA,Ewe/V
-0.01,-2.062458
-0.01,-2.075644
-0.01,-2.08774
-0.01,-2.09885
-0.01,-2.11118
-0.01,-2.12299
-0.01,-2.135316
-0.01,-2.14677
-0.01,-2.15831
-0.01,-2.169
0.01,-0.8725848
0.01,0.1601065
0.01,1.15187
0.01,1.192558
0.01,1.22378
0.01,1.2482
0.01,1.26971
0.01,1.28969
0.01,1.30738
0.01,1.32318
0.01,1.338121
0.01,1.35253
0.01,1.36591
0.01,1.37909
0.01,1.391381
0.01,1.403613
0.01,1.41567
0.01,1.42703
0.01,1.43871
0.01,1.45002
0.01,1.46124
0.01,1.47267
0.01,1.48449
0.01,1.49639
0.01,1.508
0.01,1.51973
0.01,1.531658
0.01,1.54357
0.01,1.55614
0.01,1.56776
0.01,1.58013
0.01,1.59196
0.01,1.60413
0.01,1.61593
0.01,1.62698
0.01,1.63886
0.01,1.650677
0.01,1.66237
0.01,1.67392
0.01,1.685503
0.01,1.69722
0.01,1.7088
0.01,1.72048
0.01,1.73185
0.01,1.74348
0.01,1.75441
0.01,1.76592
0.01,1.77704
0.01,1.78857
0.01,1.79967
0.01,1.8046
0.01,1.81437
0.01,1.82528
0.01,1.83563
0.01,1.84645
0.01,1.85696
0.01,1.86725
0.01,1.87837
0.01,1.88856
0.01,1.89902
0.01,1.90953
0.01,1.92108