File: charging_cycle_146.csv
control/mA,Ewe/V
-0.04,-2.55592
-0.04,-2.5752
-0.04,-2.59472
-0.04,-2.6142
-0.04,-2.63287
-0.04,-2.65126
-0.04,-2.66992
-0.04,-2.687805
-0.04,-2.70101
-0.04,-2.70299
0.04,-2.07041
0.04,-1.07035
0.04,-0.07030439
0.04,0.379481
0.04,0.571072
0.04,0.689461
0.04,0.7808484
0.04,0.859545
0.04,0.9343879
0.04,1.00022
0.04,1.058292
0.04,1.1142
0.04,1.175708
0.04,1.24309
0.04,1.31929
0.04,1.40344
0.04,1.49389
0.04,1.59309
0.04,1.69449
0.04,1.79931
0.04,1.89578
0.04,1.97737
0.04,2.0388
0.04,2.08687
0.04,2.12263
0.04,2.15351
0.04,2.18236
0.04,2.21094
0.04,2.23987
0.04,2.27111
0.04,2.30487
0.04,2.34204
0.04,2.38313
0.04,2.42597
0.04,2.474495
0.04,2.52676
0.04,2.58214
0.04,2.64403
0.04,2.70996
0.04,2.77965
0.04,2.84888
0.04,2.913302
0.04,2.98522
0.04,3.05341
0.04,3.12107
0.04,3.186891
0.04,3.252364
0.04,3.3166
0.04,3.38121
0.04,3.44376
0.04,3.50365
0.04,3.56131
0.04,3.61417
0.04,3.66692
0.04,3.716055
0.04,3.76286
0.04,3.80187
0.04,3.841562
0.04,3.8828
0.04,3.92169
0.04,3.95869
0.04,3.99617
0.04,3.99955