File: charging_cycle_13.csv
control/mA,Ewe/V
-0.01,-1.96044
-0.01,-1.97138
-0.01,-1.982635
-0.01,-1.99372
-0.01,-2.00466
-0.01,-2.01536
-0.01,-2.02591
-0.01,-2.037116
-0.01,-2.04733
-0.01,-2.058069
0.01,-0.7805674
0.01,0.235502
0.01,1.07207
0.01,1.11417
0.01,1.143
0.01,1.16691
0.01,1.18672
0.01,1.204752
0.01,1.22105
0.01,1.23624
0.01,1.24984
0.01,1.262878
0.01,1.27517
0.01,1.28704
0.01,1.29822
0.01,1.30881
0.01,1.3194
0.01,1.32953
0.01,1.33999
0.01,1.35064
0.01,1.36083
0.01,1.37102
0.01,1.38069
0.01,1.39111
0.01,1.40128
0.01,1.41172
0.01,1.4217
0.01,1.4321
0.01,1.44262
0.01,1.45288
0.01,1.46302
0.01,1.47353
0.01,1.48399
0.01,1.49454
0.01,1.50475
0.01,1.51517
0.01,1.52534
0.01,1.53561
0.01,1.5461
0.01,1.55668
0.01,1.56646
0.01,1.57645
0.01,1.58648
0.01,1.59705
0.01,1.606386
0.01,1.61621
0.01,1.625774
0.01,1.63539
0.01,1.6453
0.01,1.65459
0.01,1.66426
0.01,1.67342
0.01,1.68281
0.01,1.69186
0.01,1.70113
0.01,1.71054
0.01,1.72004
0.01,1.72897
0.01,1.7383
0.01,1.74727
0.01,1.75662
0.01,1.76567