File: charging_cycle_55.csv
control/mA,Ewe/V
-0.01,-0.5194864
-0.01,-0.522158
-0.01,-0.5249632
-0.01,-0.527864
-0.01,-0.5302682
-0.01,-0.533092
-0.01,-0.535592
-0.01,-0.5380158
-0.01,-0.5402103
-0.01,-0.542577
0.01,-0.2838497
0.01,0.2014015
0.01,0.247811
0.01,0.276378
0.01,0.29754
0.01,0.314772
0.01,0.329676
0.01,0.3432052
0.01,0.35517
0.01,0.3659709
0.01,0.375875
0.01,0.385035
0.01,0.393431
0.01,0.4013312
0.01,0.4089261
0.01,0.4161203
0.01,0.4230664
0.01,0.429707
0.01,0.4359663
0.01,0.442149
0.01,0.447988
0.01,0.453904
0.01,0.4593808
0.01,0.464667
0.01,0.469934
0.01,0.4749714
0.01,0.480028
0.01,0.484398
0.01,0.488825
0.01,0.4933099
0.01,0.498061
0.01,0.5023933
0.01,0.506515
0.01,0.510752
0.01,0.514702
0.01,0.5184228
0.01,0.5225828
0.01,0.5264375
0.01,0.530273
0.01,0.5339561
0.01,0.5376391
0.01,0.541398
0.01,0.5450813
0.01,0.5484399
0.01,0.552333
0.01,0.5556913
0.01,0.5590117
0.01,0.562179
0.01,0.5654044
0.01,0.5684386
0.01,0.5713964
0.01,0.5749458
0.01,0.577885
0.01,0.5808805
0.01,0.5839338
0.01,0.5870824
0.01,0.589888
0.01,0.5927118
0.01,0.595651
0.01,0.5983412
0.01,0.601146