File: charging_cycle_165.csv
control/mA,Ewe/V
-0.04,-3.69625
-0.04,-3.77716
-0.04,-3.86034
-0.04,-3.94032
-0.04,-4.00846
-0.04,-4.06552
-0.04,-4.11502
-0.04,-4.157766
-0.04,-4.193298
-0.04,-4.22474
0.04,-3.547903
0.04,-2.54782
0.04,-1.54771
0.04,-0.54764
0.04,0.452377
0.04,0.787241
0.04,0.883552
0.04,0.9628021
0.04,1.04459
0.04,1.12678
0.04,1.20553
0.04,1.28893
0.04,1.38094
0.04,1.485726
0.04,1.60406
0.04,1.736492
0.04,1.86788
0.04,1.973
0.04,2.04893
0.04,2.105552
0.04,2.151961
0.04,2.1928
0.04,2.23193
0.04,2.271493
0.04,2.30954
0.04,2.34891
0.04,2.38885
0.04,2.43164
0.04,2.47957
0.04,2.53098
0.04,2.58651
0.04,2.64903
0.04,2.717208
0.04,2.790352
0.04,2.8696
0.04,2.95309
0.04,3.03974
0.04,3.12938
0.04,3.22513
0.04,3.32362
0.04,3.425425
0.04,3.52817
0.04,3.63392
0.04,3.748877
0.04,3.87234
0.04,4.002258
0.04,4.12217
0.04,4.22702
0.04,4.312914
0.04,4.382337
0.04,4.438173
0.04,4.488704
0.04,4.53382
0.04,4.575034
0.04,4.61288
0.04,4.6489
0.04,4.683806
0.04,4.71516
0.04,4.74592
0.04,4.775632
0.04,4.80492
0.04,4.83361
0.04,4.85883
0.04,4.8724