File: charging_cycle_152.csv
control/mA,Ewe/V
-0.04,-2.704674
-0.04,-2.73332
-0.04,-2.760548
-0.04,-2.78501
-0.04,-2.81047
-0.04,-2.83465
-0.04,-2.858
-0.04,-2.87964
-0.04,-2.9046
-0.04,-2.91449
0.04,-2.26848
0.04,-1.268413
0.04,-0.2684021
0.04,0.378317
0.04,0.6108404
0.04,0.735565
0.04,0.8273911
0.04,0.9111643
0.04,0.9927429
0.04,1.064036
0.04,1.132333
0.04,1.20563
0.04,1.28507
0.04,1.37449
0.04,1.47313
0.04,1.58186
0.04,1.69873
0.04,1.81349
0.04,1.915049
0.04,2.00212
0.04,2.065631
0.04,2.117116
0.04,2.15669
0.04,2.18965
0.04,2.219645
0.04,2.24833
0.04,2.27762
0.04,2.308437
0.04,2.34475
0.04,2.38278
0.04,2.42221
0.04,2.46652
0.04,2.51671
0.04,2.57264
0.04,2.635324
0.04,2.70917
0.04,2.79108
0.04,2.87664
0.04,2.96614
0.04,3.055163
0.04,3.14554
0.04,3.23612
0.04,3.329439
0.04,3.4272
0.04,3.52927
0.04,3.63503
0.04,3.74102
0.04,3.842974
0.04,3.934323
0.04,4.01867
0.04,4.090515
0.04,4.151847
0.04,4.204734
0.04,4.25288
0.04,4.295148
0.04,4.33335
0.04,4.370601
0.04,4.406667
0.04,4.439566
0.04,4.470537
0.04,4.50111
0.04,4.529541
0.04,4.53893