File: charging_cycle_262.csv
control/mA,Ewe/V
-0.08,-5.45328
-0.08,-5.46956
-0.08,-5.484597
-0.08,-5.496581
-0.08,-5.512229
-0.08,-5.525148
-0.08,-5.53742
-0.08,-5.548639
-0.08,-5.558867
-0.08,-5.56606
0.08,-4.88664
0.08,-3.88068
0.08,-2.88044
0.08,-1.88042
0.08,-0.8803277
0.08,0.0236971
0.08,0.48707
0.08,0.741862
0.08,0.9063936
0.08,1.01089
0.08,1.08117
0.08,1.1475
0.08,1.21494
0.08,1.29549
0.08,1.39027
0.08,1.51156
0.08,1.66949
0.08,1.8499
0.08,2.01021
0.08,2.11633
0.08,2.204856
0.08,2.30109
0.08,2.41694
0.08,2.565901
0.08,2.742397
0.08,2.91628
0.08,3.08886
0.08,3.26286
0.08,3.43294
0.08,3.58772
0.08,3.71535
0.08,3.84618
0.08,3.96249
0.08,4.08111
0.08,4.203131
0.08,4.32436
0.08,4.439852
0.08,4.5508
0.08,4.648541
0.08,4.73453
0.08,4.80893
0.08,4.87492
0.08,4.93222
0.08,4.98505
0.08,5.03329
0.08,5.076547
0.08,5.119388
0.08,5.150951
0.08,5.18417
0.08,5.21137
0.08,5.231652
0.08,5.24839
0.08,5.2607
0.08,5.26882
0.08,5.27547
0.08,5.281553
0.08,5.286782
0.08,5.291972
0.08,5.29602
0.08,5.29968
0.08,5.302124
0.08,5.305559
0.08,5.30796
0.08,5.309433
0.08,5.311112