File: charging_cycle_176.csv
control/mA,Ewe/V
0.04,2.54564
0.04,2.60109
0.04,2.66214
0.04,2.72772
0.04,2.79831
0.04,2.871339
0.04,2.91781
0.0,2.91803
0.0,1.08625
0.0,1.08625
0.04,1.08541
0.04,2.085589
0.08,3.085619
0.08,3.74928
0.08,4.09616
0.08,4.42655
0.08,4.73199
0.08,4.989549
0.08,5.190967
0.08,5.3496
0.08,5.48845
0.08,5.610959
0.08,5.713929
0.08,5.804267
0.08,5.88088
0.08,5.94655
0.08,5.99962
0.08,6.03505
0.08,6.05658
0.08,6.066635
0.08,6.066578
0.08,6.06975
0.08,6.06536
0.08,6.0591
0.08,6.05047
0.08,6.041885
0.08,6.035874